,P3,C3,F3,Fz,F4,C4,P4,Cz,CM,A1,Fp1,Fp2,T3,T5,O1,O2,X3,X2,F7,F8,X1,A2,T6,T4,TRG
2021-06-21 10:18:59.020779,-191.39999389648438,-2368.760009765625,-2889.1416015625,-2063.02197265625,-2326.677734375,-1283.2052001953125,551.814697265625,1143.2716064453125,1485.8895263671875,4247.0,-7358.2568359375,-7596.08154296875,-4798.5322265625,-7848.3984375,-2260.345703125,-241.3619384765625,-3.9000000953674316,-10.199999809265137,-6046.7724609375,-5835.68212890625,-11.100000381469727,7722.6142578125,-5728.1064453125,-5109.51416015625,0.0
2021-06-21 10:18:59.021809,-1197.300048828125,-2473.62548828125,-3037.587158203125,-3436.7705078125,-2911.262451171875,-2474.85986328125,-530.2219848632812,-708.5401611328125,594.3557739257812,-9816.30078125,8073.314453125,7518.0390625,1863.4669189453125,-4296.14453125,-1647.7259521484375,-578.1879272460938,-3.9000000953674316,-10.5,8832.8251953125,6662.41845703125,-11.100000381469727,-5193.91748046875,-4236.1318359375,-3491.08203125,0.0
2021-06-21 10:18:59.022810,-845.7000122070312,-1926.8271484375,-2557.462890625,-3156.32177734375,-2564.996826171875,-2323.1728515625,-445.3504638671875,-765.5836181640625,0.0,-9606.30078125,9819.900390625,9434.103515625,3483.742919921875,-1732.1572265625,-330.2637939453125,5.40362548828125,-4.199999809265137,-10.199999809265137,9806.7001953125,6455.13525390625,-11.399999618530273,-9810.6005859375,-3413.30322265625,-2458.938720703125,0.0
2021-06-21 10:18:59.022810,-823.5,-2549.427978515625,-2951.518798828125,-2561.53076171875,-2640.9482421875,-2102.97265625,-400.9653625488281,-270.80645751953125,668.6503295898438,4738.8935546875,-3363.7060546875,-5924.3095703125,-3107.27587890625,-4451.68310546875,-1254.2838134765625,-333.823974609375,-3.9000000953674316,-10.5,-3549.231201171875,-6723.52490234375,-10.5,-2241.875244140625,-5470.07568359375,-4456.4521484375,0.0
2021-06-21 10:18:59.023822,-99.5999984741211,-2416.698486328125,-2815.06884765625,-1553.7154541015625,-1976.5247802734375,-1107.284423828125,571.9078979492188,1321.6075439453125,1485.8895263671875,9816.0,-9820.2001953125,-9798.0,-7867.47265625,-7929.45751953125,-2036.6767578125,-89.15982055664062,-4.199999809265137,-10.5,-9807.0,-9815.400390625,-10.800000190734863,9810.2998046875,-6465.7216796875,-5573.63427734375,0.0
2021-06-21 10:18:59.023822,-271.5,-2309.43603515625,-2827.6640625,-2061.22265625,-2257.304931640625,-1398.0924072265625,459.74560546875,1062.510009765625,1560.1839599609375,4070.8525390625,-7144.27978515625,-7487.2412109375,-4743.4248046875,-7799.044921875,-2267.831298828125,-254.87100219726562,-3.9000000953674316,-10.5,-5849.841796875,-5749.4140625,-10.800000190734863,7619.6220703125,-5791.49267578125,-5068.1923828125,0.0
2021-06-21 10:18:59.024811,-1097.699951171875,-2384.33984375,-3077.47265625,-3422.373291015625,-2882.257568359375,-2570.59912109375,-589.3021240234375,-619.3721923828125,594.3557739257812,-9816.30078125,8186.296875,7619.404296875,1978.7730712890625,-4233.63037109375,-1560.29443359375,-557.173828125,-3.9000000953674316,-10.5,8918.12109375,6745.69140625,-10.800000190734863,-5637.32275390625,-4219.986328125,-3443.47216796875,0.0
2021-06-21 10:18:59.025815,-814.5,-1932.8194580078125,-2478.592041015625,-3098.4326171875,-2578.45263671875,-2393.18212890625,-555.4134521484375,-808.816650390625,0.0,-9665.017578125,9819.900390625,9338.71875,3567.302490234375,-1654.38818359375,-219.4772186279297,41.42779541015625,-3.9000000953674316,-10.199999809265137,9806.7001953125,6205.017578125,-11.100000381469727,-9810.6005859375,-3369.05224609375,-2365.21630859375,0.0
2021-06-21 10:18:59.025815,-674.4000244140625,-2509.279541015625,-2875.346435546875,-2574.428466796875,-2720.1884765625,-2173.879638671875,-472.34136962890625,-180.73779296875,594.3557739257812,4418.6533203125,-3639.719482421875,-6106.10791015625,-3063.249755859375,-4393.35595703125,-1105.171142578125,-344.3310241699219,-3.9000000953674316,-10.5,-3650.39013671875,-6867.60498046875,-10.5,-2579.893310546875,-5430.6083984375,-4372.3115234375,0.0
2021-06-21 10:18:59.026778,84.9000015258789,-2401.7177734375,-2787.478759765625,-1479.0291748046875,-2120.652587890625,-1088.4356689453125,548.815673828125,1363.0390625,1560.1839599609375,9816.0,-9820.2001953125,-9798.0,-7834.5283203125,-7828.65673828125,-1892.0552978515625,-60.940887451171875,-3.9000000953674316,-9.899999618530273,-9807.0,-9815.400390625,-11.100000381469727,9810.2998046875,-6427.74951171875,-5470.62939453125,0.0
2021-06-21 10:18:59.026778,-62.70000076293945,-2381.34375,-2865.150390625,-2072.92041015625,-2314.716796875,-1407.3670654296875,352.9814758300781,1087.428955078125,1634.4783935546875,4057.3720703125,-7531.177734375,-7857.4169921875,-4724.556640625,-7736.8291015625,-2288.491455078125,-233.55670166015625,-3.5999999046325684,-10.5,-6064.7294921875,-5943.81640625,-10.800000190734863,7619.6220703125,-5725.71435546875,-4992.13671875,0.0
2021-06-21 10:18:59.027810,-947.0999755859375,-2447.558837890625,-3046.283935546875,-3462.265869140625,-2903.787109375,-2565.213623046875,-696.3661499023438,-692.6279907226562,668.6503295898438,-9816.30078125,7864.431640625,7180.4560546875,1956.9097900390625,-4198.0361328125,-1600.716552734375,-594.3988037109375,-3.9000000953674316,-10.800000190734863,8801.998046875,6464.12158203125,-10.800000190734863,-5284.03564453125,-4265.4326171875,-3306.93115234375,0.0
2021-06-21 10:18:59.028809,-676.2000122070312,-1920.8348388671875,-2504.6826171875,-3105.631103515625,-2547.95263671875,-2410.53515625,-559.0122680664062,-689.625732421875,148.5889434814453,-9576.64453125,9819.900390625,9192.203125,3604.739501953125,-1636.44140625,-209.59625244140625,-7.505035400390625,-3.9000000953674316,-10.199999809265137,9806.7001953125,6121.44482421875,-10.800000190734863,-9810.6005859375,-3363.072265625,-2263.10986328125,0.0
2021-06-21 10:18:59.028809,-595.7999877929688,-2525.1591796875,-2992.3037109375,-2546.53369140625,-2714.80615234375,-2226.835205078125,-553.314208984375,-224.87142944335938,742.9447631835938,4755.36962890625,-4257.97705078125,-6670.04345703125,-3129.4384765625,-4466.33935546875,-1189.3089599609375,-390.2618408203125,-4.5,-10.800000190734863,-3930.222412109375,-7062.3076171875,-10.800000190734863,-2175.708984375,-5511.9345703125,-4316.91650390625,0.0
2021-06-21 10:18:59.029810,148.1999969482422,-2362.16845703125,-2857.953125,-1417.240478515625,-2031.843505859375,-1134.2110595703125,557.8126831054688,1424.2857666015625,1783.0675048828125,9816.0,-9820.2001953125,-9798.0,-7919.28564453125,-7878.9072265625,-1871.3951416015625,-81.05438232421875,-3.9000000953674316,-10.5,-9807.0,-9815.400390625,-10.800000190734863,9810.2998046875,-6335.66015625,-5418.82763671875,0.0
2021-06-21 10:18:59.029810,-4.800000190734863,-2314.829345703125,-2908.63427734375,-1958.9412841796875,-2211.85400390625,-1491.7373046875,436.35345458984375,1160.985107421875,1634.4783935546875,4030.71044921875,-7529.67919921875,-7783.8603515625,-4765.587890625,-7774.81640625,-2180.39990234375,-261.17523193359375,-4.199999809265137,-10.199999809265137,-5992.30224609375,-5966.2822265625,-10.800000190734863,7660.33935546875,-5592.66259765625,-4959.19921875,0.0
2021-06-21 10:18:59.030780,-1010.0999755859375,-2433.7763671875,-3107.761474609375,-3475.763427734375,-2919.037109375,-2700.445556640625,-710.7613525390625,-643.0902099609375,817.2391967773438,-9816.30078125,7979.8115234375,7389.763671875,1940.1380615234375,-4232.13525390625,-1509.69189453125,-530.1557006835938,-3.5999999046325684,-10.199999809265137,8869.935546875,6641.75,-10.800000190734863,-5545.1083984375,-4100.08984375,-3340.467529296875,0.0
2021-06-21 10:18:59.051689,-896.4000244140625,-1941.8079833984375,-2596.44873046875,-3224.409423828125,-2585.330322265625,-2485.63037109375,-612.994140625,-764.3826904296875,148.5889434814453,-9577.841796875,9819.900390625,9271.4404296875,3507.70263671875,-1718.996337890625,-237.1431884765625,-74.14974975585938,-4.199999809265137,-10.800000190734863,9806.7001953125,6301.17041015625,-11.100000381469727,-9810.6005859375,-3344.23583984375,-2391.56640625,0.0
2021-06-21 10:18:59.052544,-792.9000244140625,-2432.2783203125,-2980.30810546875,-2559.43115234375,-2614.933349609375,-2214.86767578125,-530.2219848632812,-205.95701599121094,742.9447631835938,4695.15576171875,-3495.569091796875,-6276.54443359375,-3041.386474609375,-4426.8564453125,-1029.4169921875,-396.265869140625,-3.5999999046325684,-10.800000190734863,-3605.497314453125,-6720.529296875,-10.800000190734863,-2483.188232421875,-5372.90283203125,-4323.20458984375,0.0
2021-06-21 10:18:59.053574,-24.299999237060547,-2377.44873046875,-2894.23974609375,-1578.3109130859375,-1973.8336181640625,-1198.2366943359375,442.6513366699219,1320.4066162109375,1708.77294921875,9816.0,-9820.2001953125,-9798.0,-7784.51220703125,-7854.38037109375,-1873.79052734375,-190.32769775390625,-3.9000000953674316,-10.800000190734863,-9807.0,-9815.400390625,-10.800000190734863,9810.2998046875,-6349.712890625,-5363.73193359375,0.0
2021-06-21 10:18:59.053574,-270.8999938964844,-2414.001953125,-2991.104248046875,-2151.2060546875,-2210.65771484375,-1516.569580078125,274.10797119140625,929.5086059570312,1857.3619384765625,3826.703369140625,-6784.35302734375,-7258.19873046875,-4568.818359375,-7697.94482421875,-2184.29248046875,-336.82598876953125,-4.199999809265137,-10.199999809265137,-5575.09765625,-5549.3193359375,-10.5,7363.03955078125,-5598.94140625,-4929.85498046875,0.0
2021-06-21 10:18:59.054544,-1144.800048828125,-2417.89697265625,-3101.4638671875,-3586.742919921875,-2834.71337890625,-2576.582763671875,-767.1423950195312,-825.3292236328125,668.6503295898438,-9816.30078125,8452.12109375,7806.2861328125,2152.481201171875,-4128.04345703125,-1467.7725830078125,-580.8897705078125,-3.5999999046325684,-10.5,9060.8798828125,7178.8291015625,-10.800000190734863,-5960.96923828125,-4043.879150390625,-3277.5869140625,0.0
2021-06-21 10:18:59.055575,-842.4000244140625,-2003.2291259765625,-2599.14794921875,-3305.39453125,-2565.594970703125,-2383.907470703125,-701.16455078125,-900.0862426757812,148.5889434814453,-9669.810546875,9819.900390625,9413.171875,3635.58740234375,-1628.3653564453125,-228.16049194335938,-42.0281982421875,-3.9000000953674316,-10.800000190734863,9806.7001953125,6734.90771484375,-10.800000190734863,-9810.6005859375,-3186.965576171875,-2318.5048828125,0.0
2021-06-21 10:18:59.055575,-786.5999755859375,-2598.864501953125,-3048.083251953125,-2708.50390625,-2611.64404296875,-2163.408203125,-616.2930297851562,-396.3021240234375,594.3557739257812,4363.5322265625,-3055.02685546875,-5859.125,-3024.015869140625,-4367.3330078125,-1050.0771484375,-495.9327392578125,-3.5999999046325684,-10.5,-3391.5078125,-6576.150390625,-10.5,-2621.50927734375,-5304.13427734375,-4271.103515625,0.0
2021-06-21 10:18:59.056575,-122.69999694824219,-2542.2373046875,-3053.181640625,-1640.099609375,-1981.30908203125,-1182.0806884765625,358.379638671875,1092.232666015625,1708.77294921875,9816.0,-9820.2001953125,-9798.0,-7948.3369140625,-7787.67822265625,-1994.15869140625,-262.6762390136719,-3.9000000953674316,-10.5,-9807.0,-9815.400390625,-11.100000381469727,9810.2998046875,-6347.61962890625,-5383.49462890625,0.0
2021-06-21 10:18:59.056575,-288.6000061035156,-2472.12744140625,-3084.669921875,-2134.109130859375,-2189.72607421875,-1370.5673828125,320.59234619140625,880.87158203125,1634.4783935546875,3909.384521484375,-7130.49365234375,-7367.337890625,-4744.623046875,-7582.78662109375,-2193.8740234375,-337.4263916015625,-3.9000000953674316,-10.5,-5883.66162109375,-5666.73974609375,-10.800000190734863,7554.65283203125,-5614.18994140625,-4896.318359375,0.0
2021-06-21 10:18:59.057575,-1157.4000244140625,-2564.408935546875,-3210.923828125,-3508.75732421875,-2762.9482421875,-2519.13916015625,-628.2890014648438,-725.6531982421875,668.6503295898438,-9816.30078125,8148.8359375,7643.6240234375,1935.945068359375,-4130.1376953125,-1530.950927734375,-589.895751953125,-3.9000000953674316,-10.800000190734863,8875.9208984375,6819.9775390625,-10.800000190734863,-5589.11962890625,-4069.293701171875,-3250.038818359375,0.0
2021-06-21 10:18:59.058575,-826.2000122070312,-1999.3341064453125,-2682.817138671875,-3160.521240234375,-2528.516357421875,-2348.90283203125,-562.3111572265625,-798.6088256835938,0.0,-9638.056640625,9819.900390625,9175.1591796875,3464.87451171875,-1590.976318359375,-242.8322296142578,-128.78640747070312,-3.299999952316284,-10.5,9806.7001953125,6252.34521484375,-10.5,-9810.6005859375,-3253.04296875,-2260.115478515625,0.0
2021-06-21 10:18:59.058575,-791.0999755859375,-2619.238525390625,-3112.5595703125,-2633.517578125,-2708.82568359375,-2149.34619140625,-532.0213623046875,-333.8545227050781,668.6503295898438,4545.97021484375,-3914.833740234375,-6424.55517578125,-3199.22119140625,-4393.05712890625,-1149.186279296875,-538.5613403320312,-3.5999999046325684,-10.199999809265137,-3931.1201171875,-6930.80810546875,-10.800000190734863,-2439.4765625,-5362.13916015625,-4357.63916015625,0.0
2021-06-21 10:18:59.059576,0.8999999761581421,-2468.232177734375,-2880.144775390625,-1521.621337890625,-2095.53466796875,-1052.533447265625,532.9210205078125,1263.0628662109375,1560.1839599609375,9816.0,-9820.2001953125,-9798.0,-7976.18994140625,-7760.75830078125,-1861.2147216796875,-188.5264892578125,-3.9000000953674316,-10.5,-9807.0,-9815.400390625,-11.100000381469727,9810.2998046875,-6245.9619140625,-5370.61865234375,0.0
2021-06-21 10:18:59.059576,-144.60000610351562,-2359.172119140625,-2888.841552734375,-2006.0325927734375,-2214.245849609375,-1298.463623046875,541.91796875,1076.620849609375,1783.0675048828125,4149.93896484375,-7533.5751953125,-7749.47412109375,-4658.66748046875,-7624.064453125,-2122.012451171875,-271.98248291015625,-3.9000000953674316,-10.199999809265137,-6137.7548828125,-5767.38623046875,-10.800000190734863,7674.11181640625,-5505.3564453125,-4849.30712890625,0.0
2021-06-21 10:18:59.060575,-1052.699951171875,-2386.1376953125,-2970.411865234375,-3407.3759765625,-2820.061279296875,-2350.39892578125,-511.628173828125,-668.3094482421875,817.2391967773438,-9816.30078125,7921.9716796875,7344.912109375,2020.1036376953125,-4081.083251953125,-1475.5576171875,-556.2732543945312,-3.299999952316284,-10.800000190734863,8796.0126953125,6680.09130859375,-10.5,-5474.15234375,-3979.595703125,-3211.412109375,0.0
2021-06-21 10:18:59.061575,-814.5,-1965.1778564453125,-2454.900634765625,-3158.12158203125,-2551.241943359375,-2290.262451171875,-532.9210205078125,-757.4774780273438,0.0,-9517.62890625,9819.900390625,9173.962890625,3478.6513671875,-1587.0880126953125,-238.0414581298828,-95.76425170898438,-4.199999809265137,-10.800000190734863,9806.7001953125,6142.4130859375,-11.100000381469727,-9810.6005859375,-3195.038330078125,-2286.465576171875,0.0
2021-06-21 10:18:59.061575,-696.5999755859375,-2554.8212890625,-2875.046875,-2614.021240234375,-2669.952880859375,-2137.07958984375,-465.143798828125,-260.5986633300781,668.6503295898438,4982.443359375,-4046.097412109375,-6514.5576171875,-3239.95263671875,-4380.1953125,-1131.81982421875,-442.1966857910156,-4.199999809265137,-10.800000190734863,-3978.108154296875,-6882.88134765625,-11.100000381469727,-2009.5443115234375,-5173.474609375,-4209.42041015625,0.0
2021-06-21 10:18:59.113285,70.5,-2478.11962890625,-2781.781005859375,-1603.2064208984375,-2105.103515625,-1201.826904296875,460.6452941894531,1225.234130859375,1634.4783935546875,9816.0,-9820.2001953125,-9798.0,-8036.38818359375,-7804.7275390625,-1929.7825927734375,-116.4781494140625,-4.199999809265137,-10.5,-9807.0,-9815.400390625,-10.5,9810.2998046875,-6190.349609375,-5356.84521484375,0.0
2021-06-21 10:18:59.114273,-195.3000030517578,-2365.464111328125,-2840.859130859375,-2145.207275390625,-2379.604248046875,-1510.5859375,412.9613342285156,885.375,1708.77294921875,4104.10498046875,-7321.9951171875,-7569.17041015625,-4840.162109375,-7626.75634765625,-2229.8046875,-305.60504150390625,-3.9000000953674316,-10.5,-5978.83447265625,-5800.9345703125,-10.800000190734863,7622.61572265625,-5503.86181640625,-4883.7421875,0.0
2021-06-21 10:18:59.115273,-1072.5,-2457.4462890625,-3045.08447265625,-3594.841552734375,-2947.14501953125,-2662.748046875,-683.4705200195312,-900.9868774414062,668.6503295898438,-9816.30078125,8109.87646484375,7510.26513671875,1867.0609130859375,-4133.42822265625,-1583.050537109375,-684.7593994140625,-3.9000000953674316,-10.5,8878.9140625,6813.3876953125,-10.800000190734863,-5410.9794921875,-4013.97998046875,-3289.863525390625,0.0
2021-06-21 10:18:59.115273,-843.5999755859375,-1921.733642578125,-2471.394775390625,-3255.90380859375,-2582.63916015625,-2377.624755859375,-548.5158081054688,-987.7530517578125,0.0,-9504.748046875,9819.900390625,9279.8134765625,3456.189208984375,-1623.878662109375,-207.79971313476562,-64.843505859375,-3.9000000953674316,-11.100000381469727,9806.7001953125,6293.38232421875,-11.399999618530273,-9810.6005859375,-3191.74951171875,-2285.86669921875,0.0
2021-06-21 10:18:59.116274,-733.5,-2526.05810546875,-2946.420654296875,-2716.002685546875,-2710.9189453125,-2216.662841796875,-518.52587890625,-391.49847412109375,742.9447631835938,4776.9384765625,-3773.380615234375,-6324.08740234375,-3206.4091796875,-4452.87939453125,-1082.4149169921875,-506.13958740234375,-3.299999952316284,-10.5,-3784.769287109375,-6944.28759765625,-10.800000190734863,-2166.72705078125,-5314.0009765625,-4221.09814453125,0.0
2021-06-21 10:18:59.116274,92.0999984741211,-2404.414306640625,-2818.067626953125,-1653.59716796875,-2076.3974609375,-1049.5416259765625,522.1246337890625,1140.5694580078125,1634.4783935546875,9816.0,-9820.2001953125,-9798.0,-7918.38720703125,-7823.27294921875,-1867.2032470703125,-196.63192749023438,-3.9000000953674316,-10.5,-9807.0,-9815.400390625,-10.800000190734863,9810.2998046875,-6210.3818359375,-5292.16796875,0.0
2021-06-21 10:18:59.117304,-124.19999694824219,-2321.12109375,-2855.254150390625,-2189.89892578125,-2305.148193359375,-1442.9700927734375,410.2622375488281,878.1694946289062,1634.4783935546875,3962.408447265625,-7277.34130859375,-7460.92822265625,-4739.23193359375,-7624.064453125,-2212.138671875,-362.9435119628906,-3.5999999046325684,-10.199999809265137,-5908.501953125,-5690.40380859375,-10.800000190734863,7519.32421875,-5482.93212890625,-4802.59619140625,0.0
2021-06-21 10:18:59.118305,-958.2000122070312,-2402.916015625,-3002.500244140625,-3536.352294921875,-2906.47802734375,-2541.87744140625,-557.212890625,-843.042724609375,668.6503295898438,-9816.30078125,8125.76025390625,7612.826171875,2028.1900634765625,-4039.805908203125,-1546.5208740234375,-611.51025390625,-3.5999999046325684,-10.199999809265137,8901.9599609375,6848.134765625,-10.800000190734863,-5620.25732421875,-3931.7568359375,-3175.480224609375,0.0
2021-06-21 10:18:59.118305,-705.9000244140625,-1978.6605224609375,-2552.364990234375,-3273.300537109375,-2588.320556640625,-2459.0029296875,-533.8207397460938,-946.0211791992188,148.5889434814453,-9592.521484375,9819.900390625,9241.2412109375,3428.03662109375,-1530.85498046875,-244.329345703125,-119.78036499023438,-3.9000000953674316,-10.199999809265137,9806.7001953125,6271.8154296875,-10.800000190734863,-9810.6005859375,-3192.646240234375,-2263.4091796875,0.0
2021-06-21 10:18:59.119304,-657.0,-2534.447265625,-2962.91455078125,-2707.30419921875,-2671.14892578125,-2187.343017578125,-424.35748291015625,-385.79412841796875,742.9447631835938,4551.3623046875,-3822.529541015625,-6208.3701171875,-3187.84033203125,-4327.85107421875,-1203.3818359375,-503.4377746582031,-3.9000000953674316,-11.100000381469727,-3837.44384765625,-6847.53564453125,-10.800000190734863,-2364.328369140625,-5305.92822265625,-4272.30078125,0.0
2021-06-21 10:18:59.119304,-14.100000381469727,-2554.221923828125,-2890.341064453125,-1710.5867919921875,-2129.922119140625,-1150.3670654296875,526.9230346679688,1186.8048095703125,1485.8895263671875,9816.0,-9820.2001953125,-9798.0,-8027.703125,-7807.71875,-2104.047119140625,-287.8931579589844,-3.9000000953674316,-10.5,-9807.0,-9815.400390625,-11.399999618530273,9810.2998046875,-6286.02734375,-5331.69287109375,0.0
2021-06-21 10:18:59.120304,-279.0,-2478.11962890625,-2955.117431640625,-2329.97314453125,-2390.967041015625,-1540.8037109375,352.38165283203125,845.7447509765625,1560.1839599609375,4016.63037109375,-7214.10693359375,-7296.47216796875,-4790.146484375,-7663.84619140625,-2399.278076171875,-450.3021240234375,-3.9000000953674316,-10.199999809265137,-5978.53466796875,-5674.5283203125,-11.100000381469727,7575.3115234375,-5635.41845703125,-4856.49365234375,0.0
2021-06-21 10:18:59.121304,-1117.800048828125,-2479.91748046875,-3131.153076171875,-3627.53564453125,-2994.39013671875,-2650.4814453125,-662.7774658203125,-835.8372192382812,520.0613403320312,-9816.30078125,8193.7890625,7771.89990234375,1918.2747802734375,-4082.279541015625,-1623.7720947265625,-666.747314453125,-3.5999999046325684,-10.800000190734863,8887.892578125,6929.90966796875,-11.100000381469727,-5662.4716796875,-4114.44140625,-3203.92626953125,0.0
2021-06-21 10:18:59.121304,-842.0999755859375,-2041.2802734375,-2624.638671875,-3329.09033203125,-2676.232421875,-2469.773681640625,-583.0042114257812,-877.8692626953125,-74.29447174072266,-9515.232421875,9819.900390625,9336.6259765625,3436.122802734375,-1643.6201171875,-371.2847900390625,-130.28741455078125,-3.9000000953674316,-10.800000190734863,9806.7001953125,6380.24951171875,-10.5,-9810.6005859375,-3337.359130859375,-2248.437744140625,0.0
2021-06-21 10:18:59.122304,-784.2000122070312,-2668.075927734375,-3093.36669921875,-2713.90283203125,-2788.963134765625,-2197.51513671875,-411.16192626953125,-338.35797119140625,371.4723815917969,4892.8720703125,-3473.092529296875,-5944.94140625,-3272.597900390625,-4402.62890625,-1271.650390625,-471.31622314453125,-3.5999999046325684,-10.5,-3834.450927734375,-6763.66357421875,-10.5,-2203.852294921875,-5383.66650390625,-4243.5556640625,0.0
2021-06-21 10:18:59.122304,-112.80000305175781,-2629.125732421875,-3028.29052734375,-1750.179443359375,-2239.064453125,-1265.5533447265625,502.6311950683594,1211.423583984375,1337.3006591796875,9816.0,-9820.2001953125,-9798.0,-8101.37939453125,-7901.93896484375,-2154.35009765625,-284.2907409667969,-3.9000000953674316,-10.199999809265137,-9807.0,-9815.400390625,-10.800000190734863,9810.2998046875,-6444.49365234375,-5370.31982421875,0.0
2021-06-21 10:18:59.123304,-284.3999938964844,-2525.758544921875,-3035.488037109375,-2281.98193359375,-2404.721923828125,-1527.34033203125,342.4849853515625,922.6033935546875,1337.3006591796875,3925.86083984375,-6879.3544921875,-7151.75048828125,-4774.8720703125,-7707.21728515625,-2380.114990234375,-357.23968505859375,-3.5999999046325684,-10.5,-5826.19873046875,-5504.08837890625,-11.100000381469727,7510.6416015625,-5747.83984375,-4895.419921875,0.0
2021-06-21 10:18:59.181841,-1124.4000244140625,-2550.3271484375,-3067.8759765625,-3638.93359375,-3046.120849609375,-2595.730712890625,-676.2728881835938,-756.8770141601562,445.7668762207031,-9816.30078125,8380.794921875,7833.197265625,2007.2252197265625,-4194.44677734375,-1649.22314453125,-652.0374755859375,-3.9000000953674316,-10.199999809265137,8963.3134765625,7044.63427734375,-10.800000190734863,-5751.392578125,-4118.92626953125,-3150.028564453125,0.0
2021-06-21 10:18:59.185785,-899.4000244140625,-2077.53369140625,-2573.057373046875,-3302.6953125,-2711.516845703125,-2423.99853515625,-609.3953247070312,-899.7859497070312,-148.5889434814453,-9554.775390625,9819.900390625,9201.771484375,3461.28076171875,-1692.9736328125,-403.92193603515625,-39.02618408203125,-3.5999999046325684,-10.800000190734863,9806.7001953125,6309.857421875,-11.100000381469727,-9810.6005859375,-3256.33203125,-2263.10986328125,0.0
2021-06-21 10:18:59.188831,-740.4000244140625,-2609.051513671875,-2902.9365234375,-2711.803466796875,-2821.25732421875,-2215.765380859375,-470.2420959472656,-270.20599365234375,445.7668762207031,4749.97705078125,-3579.78173828125,-6233.4873046875,-3169.571044921875,-4510.009765625,-1303.9881591796875,-445.1986999511719,-3.9000000953674316,-10.199999809265137,-3871.861572265625,-6899.056640625,-10.800000190734863,-2293.072021484375,-5366.9228515625,-4213.91162109375,0.0
2021-06-21 10:18:59.192831,45.0,-2505.384765625,-2804.57275390625,-1591.8084716796875,-2107.49560546875,-1081.8536376953125,558.4124755859375,1266.365478515625,1411.5950927734375,9816.0,-9820.2001953125,-9798.0,-7882.14794921875,-7768.53515625,-2006.734375,-121.2813720703125,-3.9000000953674316,-10.199999809265137,-9807.0,-9815.400390625,-10.800000190734863,9810.2998046875,-6227.7236328125,-5277.49560546875,0.0
2021-06-21 10:18:59.196831,-145.5,-2434.076171875,-2848.3564453125,-2159.00439453125,-2364.653076171875,-1381.038818359375,475.34039306640625,935.8134155273438,1485.8895263671875,3959.412841796875,-7286.93115234375,-7707.61279296875,-4653.57568359375,-7598.93896484375,-2272.921630859375,-285.19134521484375,-3.9000000953674316,-10.199999809265137,-5981.8271484375,-5922.24951171875,-11.399999618530273,7433.697265625,-5567.546875,-4796.00830078125,0.0
2021-06-21 10:18:59.199779,-1041.300048828125,-2529.6533203125,-3012.6962890625,-3504.55810546875,-3001.566650390625,-2547.2626953125,-566.2098999023438,-803.7127075195312,594.3557739257812,-9816.30078125,8095.79150390625,7392.45458984375,2047.6573486328125,-4098.431640625,-1557.3001708984375,-608.5082397460938,-3.5999999046325684,-10.800000190734863,8878.3154296875,6350.5947265625,-11.100000381469727,-5846.89990234375,-4056.73583984375,-3227.281982421875,0.0
2021-06-21 10:18:59.202834,-757.7999877929688,-1908.2509765625,-2439.606201171875,-3222.90966796875,-2681.31591796875,-2368.649169921875,-541.6181030273438,-793.5049438476562,0.0,-9546.087890625,9819.900390625,8909.0400390625,3513.39306640625,-1608.923095703125,-227.86106872558594,-91.86163330078125,-4.199999809265137,-10.5,9806.7001953125,5712.86962890625,-11.399999618530273,-9810.6005859375,-3218.060791015625,-2273.58984375,0.0
2021-06-21 10:18:59.204820,-679.2000122070312,-2517.968505859375,-2906.2353515625,-2699.20556640625,-2740.22265625,-2214.86767578125,-472.6412658691406,-255.49478149414062,594.3557739257812,4693.9580078125,-4491.134765625,-7046.49853515625,-3089.60546875,-4470.52685546875,-1128.8255615234375,-443.3974914550781,-4.199999809265137,-10.5,-4286.37255859375,-7254.0146484375,-10.800000190734863,-2359.5380859375,-5255.099609375,-4287.87158203125,0.0
2021-06-21 10:18:59.206820,79.80000305175781,-2387.935302734375,-2836.06103515625,-1607.405517578125,-2071.613037109375,-1063.603271484375,556.0133056640625,1299.9910888671875,1634.4783935546875,9816.0,-9820.2001953125,-9798.0,-7891.73193359375,-7891.47021484375,-1913.014892578125,-146.498291015625,-3.9000000953674316,-10.5,-9807.0,-9815.400390625,-11.100000381469727,9810.2998046875,-6176.595703125,-5314.0263671875,0.0
2021-06-21 10:18:59.207828,-95.0999984741211,-2243.5205078125,-2790.177734375,-2108.913818359375,-2190.92236328125,-1253.8851318359375,577.30615234375,1061.0087890625,1560.1839599609375,3867.44482421875,-7815.2822265625,-8139.68359375,-4588.5849609375,-7653.07763671875,-2173.51318359375,-178.9200439453125,-3.5999999046325684,-10.199999809265137,-6235.92041015625,-6054.34765625,-10.800000190734863,7525.01318359375,-5416.2568359375,-4806.48876953125,0.0
2021-06-21 10:18:59.209815,-1069.5,-2347.786865234375,-3010.297119140625,-3641.3330078125,-2942.0615234375,-2528.713134765625,-633.3872680664062,-816.0221557617188,742.9447631835938,-9816.30078125,7761.93798828125,7060.8515625,1992.25048828125,-4252.17529296875,-1546.221435546875,-556.5734252929688,-3.9000000953674316,-10.5,8787.3330078125,6209.5107421875,-11.100000381469727,-5810.37353515625,-4011.588134765625,-3254.23095703125,0.0
2021-06-21 10:18:59.211815,-789.5999755859375,-1842.0360107421875,-2526.874267578125,-3349.486572265625,-2609.849853515625,-2319.28369140625,-547.0162963867188,-901.2870483398438,148.5889434814453,-9496.060546875,9819.900390625,8915.318359375,3511.595947265625,-1737.2421875,-230.25645446777344,1.2008056640625,-3.5999999046325684,-10.5,9806.7001953125,5626.3017578125,-10.800000190734863,-9810.6005859375,-3190.8525390625,-2302.035888671875,0.0
2021-06-21 10:18:59.212824,-647.7000122070312,-2387.935302734375,-2910.1337890625,-2791.5888671875,-2736.03662109375,-2139.473388671875,-484.33734130859375,-281.01422119140625,817.2391967773438,4872.80078125,-4549.57421875,-7026.46533203125,-3145.31201171875,-4473.51806640625,-1162.959716796875,-381.856201171875,-4.199999809265137,-10.5,-4423.74462890625,-7237.23974609375,-11.100000381469727,-1998.76611328125,-5232.97412109375,-4356.14208984375,0.0
2021-06-21 10:18:59.213815,121.5,-2272.28369140625,-2832.46240234375,-1666.494873046875,-2062.642578125,-1148.5718994140625,583.9038696289062,1307.496826171875,1634.4783935546875,9816.0,-9820.2001953125,-9798.0,-7811.76611328125,-7813.701171875,-1936.070556640625,-79.85357666015625,-3.9000000953674316,-11.100000381469727,-9807.0,-9815.400390625,-10.5,9810.2998046875,-6180.482421875,-5366.7265625,0.0
2021-06-21 10:18:59.215776,-126.0,-2240.82421875,-2858.8525390625,-2244.48876953125,-2358.07470703125,-1560.84912109375,407.863037109375,877.8692626953125,1708.77294921875,3986.3740234375,-7314.20263671875,-7607.74267578125,-4601.1640625,-7651.283203125,-2285.197998046875,-283.39013671875,-3.5999999046325684,-10.5,-6084.18310546875,-5842.87060546875,-11.100000381469727,7554.95263671875,-5527.482421875,-4924.46484375,0.0
2021-06-21 10:18:59.216776,-1084.800048828125,-2305.541015625,-3003.099853515625,-3585.543212890625,-2985.41943359375,-2650.4814453125,-627.9891357421875,-857.4536743164062,594.3557739257812,-9816.30078125,8216.8662109375,7608.0419921875,2046.459228515625,-4159.4501953125,-1635.1502685546875,-556.2732543945312,-3.5999999046325684,-10.800000190734863,8880.7109375,6784.93115234375,-10.800000190734863,-5489.1220703125,-4077.665283203125,-3289.2646484375,0.0
2021-06-21 10:18:59.217776,-781.2000122070312,-1864.20751953125,-2561.66162109375,-3276.599853515625,-2818.26708984375,-2545.16845703125,-632.7874755859375,-901.8875732421875,0.0,-9453.8212890625,9819.900390625,9251.1083984375,3413.960205078125,-1703.4425048828125,-360.50555419921875,-14.109466552734375,-3.9000000953674316,-10.800000190734863,9806.7001953125,6055.5458984375,-10.5,-9810.6005859375,-3337.359130859375,-2398.752685546875,0.0
2021-06-21 10:18:59.218776,-688.2000122070312,-2474.82373046875,-3002.2001953125,-2699.20556640625,-2808.99755859375,-2209.78173828125,-537.11962890625,-345.8636779785156,668.6503295898438,4994.12646484375,-3487.477783203125,-6181.458984375,-3228.272216796875,-4479.5,-1227.9346923828125,-384.85821533203125,-4.199999809265137,-10.800000190734863,-3965.23876953125,-7026.66162109375,-11.100000381469727,-1928.4080810546875,-5398.6162109375,-4430.4013671875,0.0
2021-06-21 10:18:59.246776,15.0,-2424.7880859375,-2943.121826171875,-1622.702880859375,-2172.383056640625,-1258.6719970703125,395.26727294921875,1165.788818359375,1708.77294921875,9816.0,-9820.2001953125,-9798.0,-7942.046875,-7880.40283203125,-2079.19482421875,-141.99526977539062,-3.9000000953674316,-10.199999809265137,-9807.0,-9815.400390625,-10.5,9810.2998046875,-6359.28076171875,-5421.5224609375,0.0
2021-06-21 10:18:59.246776,-250.8000030517578,-2350.183837890625,-2992.00390625,-2269.684326171875,-2421.168212890625,-1610.5137939453125,256.7137756347656,840.9411010742188,1708.77294921875,3899.4990234375,-6714.22607421875,-6974.43701171875,-4686.5205078125,-7697.04736328125,-2352.568359375,-373.4505615234375,-3.9000000953674316,-10.5,-5814.5263671875,-5767.9853515625,-10.800000190734863,7564.53271484375,-5674.28759765625,-4951.71337890625,0.0
2021-06-21 10:18:59.247808,-984.0,-2357.074951171875,-3043.284912109375,-3609.538818359375,-2960.002685546875,-2633.72705078125,-706.8626098632812,-806.1145629882812,668.6503295898438,-9816.30078125,8515.0556640625,8036.82373046875,2060.835205078125,-4084.37353515625,-1586.0447998046875,-551.469970703125,-3.5999999046325684,-10.5,8998.0302734375,6874.79345703125,-10.5,-5417.26708984375,-4077.665283203125,-3236.864013671875,0.0
2021-06-21 10:18:59.247808,-792.2999877929688,-1906.7528076171875,-2522.676025390625,-3293.096923828125,-2638.85498046875,-2514.95068359375,-556.0133056640625,-954.7278442382812,-148.5889434814453,-9446.9306640625,9819.900390625,9190.4091796875,3439.11767578125,-1681.906494140625,-309.3041687011719,8.4056396484375,-3.9000000953674316,-10.5,9806.7001953125,6006.4208984375,-10.800000190734863,-9810.6005859375,-3339.7509765625,-2380.786865234375,0.0
2021-06-21 10:18:59.248807,-699.2999877929688,-2525.1591796875,-2930.826171875,-2766.093505859375,-2745.30615234375,-2292.0576171875,-595.5999755859375,-354.87054443359375,668.6503295898438,4906.05322265625,-3484.48095703125,-6134.51416015625,-3227.074462890625,-4522.572265625,-1156.9713134765625,-435.8924560546875,-3.5999999046325684,-10.5,-3952.968017578125,-7128.20654296875,-10.800000190734863,-2302.053955078125,-5504.45947265625,-4422.6162109375,0.0
2021-06-21 10:18:59.249805,94.5,-2453.551025390625,-2843.258544921875,-1669.1943359375,-2095.23583984375,-1197.6383056640625,451.34844970703125,1155.28076171875,1708.77294921875,9816.0,-9820.2001953125,-9798.0,-7978.884765625,-7921.6806640625,-1937.8670654296875,-110.17391967773438,-3.299999952316284,-10.199999809265137,-9807.0,-9815.400390625,-11.100000381469727,9810.2998046875,-6358.08447265625,-5493.98486328125,0.0
2021-06-21 10:18:59.249805,-122.0999984741211,-2393.328369140625,-2846.85693359375,-2221.693115234375,-2334.153076171875,-1495.626708984375,328.6896057128906,864.0587768554688,1708.77294921875,3750.61279296875,-6965.365234375,-7189.72509765625,-4675.1396484375,-7716.7890625,-2240.28466796875,-262.9764404296875,-3.5999999046325684,-10.800000190734863,-5719.05419921875,-5775.7734375,-10.800000190734863,7327.7109375,-5668.0087890625,-4969.67919921875,0.0
2021-06-21 10:18:59.250809,-991.2000122070312,-2397.223388671875,-2967.712890625,-3533.35302734375,-2842.188720703125,-2579.275390625,-614.49365234375,-791.4033203125,817.2391967773438,-9816.30078125,8341.236328125,7901.07275390625,2047.6573486328125,-4061.940185546875,-1420.4637451171875,-533.4578857421875,-3.5999999046325684,-10.800000190734863,9033.6455078125,6906.54541015625,-10.5,-5726.841796875,-4043.879150390625,-3334.7783203125,0.0
2021-06-21 10:18:59.250809,-720.5999755859375,-1925.9283447265625,-2398.221435546875,-3187.516357421875,-2604.467529296875,-2379.12060546875,-538.3192138671875,-820.5255737304688,74.29447174072266,-9475.3896484375,9819.900390625,9102.4990234375,3472.36181640625,-1581.105712890625,-68.26849365234375,39.326385498046875,-3.5999999046325684,-10.5,9806.7001953125,6161.28466796875,-10.800000190734863,-9810.6005859375,-3293.10791015625,-2356.2333984375,0.0
2021-06-21 10:18:59.251805,-710.0999755859375,-2481.71484375,-2863.350830078125,-2632.31787109375,-2699.85498046875,-2203.798095703125,-474.1407775878906,-337.457275390625,891.5337524414062,4834.15625,-3827.923828125,-6362.06201171875,-3287.57275390625,-4440.017578125,-977.3173828125,-389.9616394042969,-3.9000000953674316,-10.199999809265137,-3913.46240234375,-7056.91552734375,-10.800000190734863,-2123.015380859375,-5453.630859375,-4448.3671875,0.0
2021-06-21 10:18:59.252805,21.299999237060547,-2449.65625,-2718.2041015625,-1585.5096435546875,-2098.823974609375,-1078.86181640625,527.82275390625,1276.5731201171875,1783.0675048828125,9816.0,-9820.2001953125,-9798.0,-7967.205078125,-7875.6171875,-1750.128662109375,-53.135650634765625,-4.199999809265137,-9.899999618530273,-9807.0,-9815.400390625,-11.100000381469727,9810.2998046875,-6379.31298828125,-5464.93994140625,0.0
2021-06-21 10:18:59.252805,-273.0,-2398.421875,-2837.8603515625,-2222.593017578125,-2317.10888671875,-1488.1470947265625,376.6734924316406,839.7401733398438,1708.77294921875,3843.479248046875,-7026.8017578125,-7303.05029296875,-4675.73876953125,-7794.85693359375,-2097.16015625,-233.25650024414062,-3.299999952316284,-10.199999809265137,-5689.4248046875,-5769.78271484375,-11.100000381469727,7431.6015625,-5685.3505859375,-5017.58837890625,0.0
2021-06-21 10:18:59.253805,-1214.4000244140625,-2405.31298828125,-2956.61669921875,-3615.837890625,-2939.370361328125,-2611.2880859375,-614.49365234375,-857.75390625,742.9447631835938,-9816.30078125,8373.0029296875,7846.95166015625,2040.169921875,-4224.6572265625,-1403.0972900390625,-449.4015197753906,-3.299999952316284,-10.5,9056.390625,6879.58642578125,-10.800000190734863,-5770.85302734375,-4143.7431640625,-3343.4619140625,0.0
2021-06-21 10:18:59.253805,-940.2000122070312,-1915.4417724609375,-2512.4794921875,-3320.391845703125,-2641.84521484375,-2513.454833984375,-588.4024047851562,-929.808837890625,148.5889434814453,-9502.650390625,9819.900390625,8983.4931640625,3426.5390625,-1811.122802734375,-113.18197631835938,85.55740356445312,-3.9000000953674316,-10.199999809265137,9806.7001953125,5954.30029296875,-10.800000190734863,-9810.6005859375,-3468.31787109375,-2473.011962890625,0.0
2021-06-21 10:18:59.254805,-797.7000122070312,-2514.672607421875,-2920.0302734375,-2705.50439453125,-2792.252197265625,-2215.1669921875,-504.7304992675781,-394.80096435546875,742.9447631835938,4865.01171875,-3997.84765625,-6673.9306640625,-3264.511474609375,-4580.30078125,-1041.9927978515625,-379.1543884277344,-3.9000000953674316,-10.800000190734863,-3981.699462890625,-7205.7880859375,-11.100000381469727,-2321.5146484375,-5575.9189453125,-4407.34521484375,0.0
2021-06-21 10:18:59.255805,13.800000190734863,-2425.087646484375,-2851.6552734375,-1677.8927001953125,-2153.544921875,-1201.228515625,478.6392517089844,1200.0147705078125,1560.1839599609375,9816.0,-9820.2001953125,-9798.0,-7920.783203125,-7984.79296875,-1858.8193359375,-104.16989135742188,-3.5999999046325684,-10.5,-9807.0,-9815.400390625,-10.800000190734863,9810.2998046875,-6471.103515625,-5440.9853515625,0.0
2021-06-21 10:18:59.255805,-221.10000610351562,-2296.852294921875,-2807.571533203125,-2215.394287109375,-2342.525634765625,-1468.40087890625,359.879150390625,954.7278442382812,1560.1839599609375,3805.134521484375,-7303.11474609375,-7744.390625,-4525.99072265625,-7709.3115234375,-2057.935791015625,-67.84552001953125,-3.299999952316284,-10.199999809265137,-5789.38623046875,-5909.06982421875,-11.100000381469727,7438.78662109375,-5639.9033203125,-4929.85498046875,0.0
2021-06-21 10:18:59.272810,-1140.9000244140625,-2409.2080078125,-3002.7998046875,-3637.433837890625,-2967.478271484375,-2695.957763671875,-725.156494140625,-731.3575439453125,594.3557739257812,-9816.30078125,8159.025390625,7452.2568359375,2043.46435546875,-4236.92041015625,-1393.515625,-447.30010986328125,-3.299999952316284,-10.5,9007.9072265625,6403.314453125,-10.800000190734863,-5921.44921875,-4172.4462890625,-3377.59716796875,0.0
2021-06-21 10:18:59.273846,-746.4000244140625,-1933.418701171875,-2472.294189453125,-3366.58349609375,-2636.462890625,-2538.586181640625,-623.1907348632812,-795.006103515625,297.1778869628906,-9464.3056640625,9819.900390625,8745.1806640625,3478.6513671875,-1806.935302734375,-115.57736206054688,60.340484619140625,-3.9000000953674316,-10.199999809265137,9806.7001953125,5396.8525390625,-10.800000190734863,-9810.6005859375,-3352.009765625,-2400.25,0.0
2021-06-21 10:18:59.273846,-610.2000122070312,-2446.66015625,-2874.447021484375,-2769.692626953125,-2752.78173828125,-2233.41748046875,-508.9291076660156,-183.43984985351562,742.9447631835938,4849.134765625,-4759.056640625,-7203.4794921875,-3223.480224609375,-4603.6318359375,-1032.11181640625,-265.0778503417969,-3.9000000953674316,-10.199999809265137,-4344.7333984375,-7425.3525390625,-10.800000190734863,-2365.825439453125,-5476.9521484375,-4420.52001953125,0.0
2021-06-21 10:18:59.274845,152.10000610351562,-2235.13134765625,-2820.466796875,-1637.7000732421875,-2127.530029296875,-1107.58349609375,560.2119140625,1411.9764404296875,1783.0675048828125,9816.0,-9820.2001953125,-9798.0,-7906.4072265625,-7969.53857421875,-1774.681396484375,24.01611328125,-4.199999809265137,-10.199999809265137,-9807.0,-9815.400390625,-10.800000190734863,9810.2998046875,-6368.54931640625,-5361.935546875,0.0
2021-06-21 10:18:59.275842,13.800000190734863,-2140.1533203125,-2812.06982421875,-2203.996337890625,-2347.010986328125,-1395.998046875,425.85699462890625,1116.2509765625,1783.0675048828125,3850.968505859375,-7690.91162109375,-8093.03759765625,-4550.54931640625,-7716.48974609375,-2044.461669921875,-119.17996215820312,-3.5999999046325684,-10.5,-5965.96533203125,-5921.9501953125,-10.800000190734863,7419.9248046875,-5578.31103515625,-4857.9912109375,0.0
2021-06-21 10:18:59.275842,-960.5999755859375,-2312.73193359375,-2969.51220703125,-3632.634765625,-3020.10595703125,-2509.864501953125,-666.9760131835938,-644.5913696289062,891.5337524414062,-9816.30078125,7935.4580078125,7221.71923828125,2068.6220703125,-4237.2197265625,-1372.5560302734375,-431.0892333984375,-3.5999999046325684,-10.199999809265137,8939.96875,6440.45751953125,-10.800000190734863,-5881.9287109375,-4129.6904296875,-3261.716796875,0.0
2021-06-21 10:18:59.276842,-717.2999877929688,-1916.3406982421875,-2520.276611328125,-3332.689697265625,-2699.257080078125,-2353.989013671875,-645.0833740234375,-723.5516357421875,148.5889434814453,-9481.380859375,9819.900390625,8880.3349609375,3477.453369140625,-1830.5650634765625,-86.23388671875,87.6588134765625,-3.5999999046325684,-10.5,9806.7001953125,5708.37646484375,-10.800000190734863,-9810.6005859375,-3286.231201171875,-2409.23291015625,0.0
2021-06-21 10:18:59.276842,-728.4000244140625,-2629.425537109375,-3019.293701171875,-2770.292724609375,-2808.698486328125,-2176.27294921875,-580.3051147460938,-282.21514892578125,817.2391967773438,4850.93212890625,-4712.90478515625,-7091.6494140625,-3335.192626953125,-4765.75048828125,-1097.3861083984375,-430.7890319824219,-4.199999809265137,-10.5,-4382.14404296875,-7269.5908203125,-11.100000381469727,-2111.3388671875,-5508.6455078125,-4490.88671875,0.0
2021-06-21 10:18:59.277847,47.099998474121094,-2515.871337890625,-2867.549560546875,-1654.197021484375,-2130.520263671875,-1159.94091796875,418.05963134765625,1242.34716796875,1708.77294921875,9816.0,-9820.2001953125,-9798.0,-7897.7216796875,-8081.40625,-1834.2667236328125,-66.0443115234375,-3.299999952316284,-10.199999809265137,-9807.0,-9815.400390625,-10.5,9810.2998046875,-6376.32275390625,-5435.29638671875,0.0
2021-06-21 10:18:59.278812,-194.39999389648438,-2452.65234375,-2893.040283203125,-2260.385986328125,-2302.157958984375,-1513.5777587890625,386.8700866699219,923.5040283203125,1708.77294921875,3817.1171875,-7198.52294921875,-7388.5673828125,-4593.6767578125,-7769.7314453125,-2184.29248046875,-241.66213989257812,-3.5999999046325684,-9.899999618530273,-5848.94384765625,-5623.30615234375,-10.800000190734863,7457.64892578125,-5583.99169921875,-4934.94482421875,0.0
2021-06-21 10:18:59.278812,-1136.699951171875,-2607.85302734375,-3093.06689453125,-3663.529052734375,-2909.46826171875,-2664.842529296875,-719.1585083007812,-848.7470092773438,594.3557739257812,-9816.30078125,8337.041015625,7817.947265625,2041.367919921875,-4182.18310546875,-1515.3809814453125,-526.853515625,-3.9000000953674316,-10.800000190734863,9023.1708984375,6962.26025390625,-10.800000190734863,-5674.1484375,-4108.16259765625,-3312.919677734375,0.0
2021-06-21 10:18:59.279841,-916.2000122070312,-2126.670654296875,-2696.01220703125,-3438.270263671875,-2581.741943359375,-2479.04833984375,-661.5778198242188,-970.0394897460938,74.29447174072266,-9443.3359375,9819.900390625,9194.89453125,3345.974609375,-1771.9390869140625,-361.4038391113281,-90.0604248046875,-3.9000000953674316,-10.199999809265137,9806.7001953125,6186.44580078125,-10.800000190734863,-9810.6005859375,-3383.40380859375,-2423.30615234375,0.0
2021-06-21 10:18:59.279841,-846.9000244140625,-2810.093505859375,-3111.9599609375,-2850.677978515625,-2740.82080078125,-2237.0078125,-608.19580078125,-346.16387939453125,742.9447631835938,4952.78564453125,-3630.728759765625,-6076.50634765625,-3325.30908203125,-4671.5302734375,-1315.3662109375,-552.9710083007812,-3.9000000953674316,-10.199999809265137,-4017.9130859375,-6937.3984375,-10.800000190734863,-2155.050537109375,-5551.99951171875,-4402.85400390625,0.0
2021-06-21 10:18:59.280842,-206.39999389648438,-2713.01806640625,-3036.6875,-1776.274658203125,-2138.593994140625,-1287.393798828125,292.40179443359375,1030.9859619140625,1485.8895263671875,9816.0,-9820.2001953125,-9798.0,-8039.68310546875,-8071.23681640625,-2203.156005859375,-355.1382751464844,-3.9000000953674316,-10.199999809265137,-9807.0,-9815.400390625,-10.5,9810.2998046875,-6509.97265625,-5516.7421875,0.0
2021-06-21 10:18:59.281843,-454.79998779296875,-2578.79052734375,-3033.988525390625,-2389.0625,-2378.408203125,-1517.7664794921875,161.64572143554688,705.537841796875,1560.1839599609375,3898.300537109375,-6525.12255859375,-6598.87890625,-4670.94677734375,-7880.7021484375,-2485.811767578125,-525.3524780273438,-3.9000000953674316,-10.800000190734863,-5477.23095703125,-5392.65869140625,-10.800000190734863,7338.4892578125,-5838.43505859375,-4975.66796875,0.0
2021-06-21 10:18:59.281843,-1280.4000244140625,-2606.35498046875,-3029.7900390625,-3696.222900390625,-2844.8798828125,-2619.067138671875,-790.5345458984375,-909.9937133789062,594.3557739257812,-9816.30078125,8664.900390625,8343.310546875,2113.2470703125,-4266.2333984375,-1619.879638671875,-685.35986328125,-3.9000000953674316,-10.5,9173.4111328125,7330.697265625,-11.100000381469727,-5602.29345703125,-4213.408203125,-3273.993408203125,0.0
2021-06-21 10:18:59.282841,-944.4000244140625,-2137.75634765625,-2581.154541015625,-3270.60107421875,-2543.467529296875,-2387.497802734375,-648.6821899414062,-906.991455078125,74.29447174072266,-9383.421875,9819.900390625,9179.64453125,3404.67578125,-1856.5877685546875,-296.12957763671875,-86.75820922851562,-3.5999999046325684,-10.199999809265137,9806.7001953125,6346.70068359375,-11.100000381469727,-9810.6005859375,-3443.202392578125,-2347.5498046875,0.0
2021-06-21 10:18:59.282841,-937.5,-2723.205078125,-3105.662353515625,-2799.08740234375,-2736.93359375,-2215.46630859375,-602.797607421875,-404.7085266113281,668.6503295898438,5122.3427734375,-3499.764892578125,-5985.0087890625,-3371.132080078125,-4726.86572265625,-1267.7578125,-553.271240234375,-3.9000000953674316,-10.5,-3928.127197265625,-6993.41259765625,-10.800000190734863,-1829.008544921875,-5583.69287109375,-4419.9208984375,0.0
2021-06-21 10:18:59.332499,-105.30000305175781,-2568.903076171875,-2989.90478515625,-1681.7919921875,-2102.71142578125,-1226.6591796875,441.4517517089844,1152.57861328125,1411.5950927734375,9816.0,-9820.2001953125,-9798.0,-8114.8564453125,-8133.7509765625,-2039.37158203125,-322.1161193847656,-3.9000000953674316,-10.5,-9807.0,-9815.400390625,-10.5,9810.2998046875,-6526.716796875,-5448.171875,0.0
2021-06-21 10:18:59.333400,-261.0,-2459.54345703125,-3021.09326171875,-2270.584228515625,-2375.41796875,-1514.17626953125,280.10595703125,837.33837890625,1485.8895263671875,3821.011474609375,-6936.5947265625,-7178.36279296875,-4684.423828125,-7870.2333984375,-2318.7333984375,-496.2329406738281,-3.9000000953674316,-10.5,-5672.6650390625,-5753.9072265625,-11.100000381469727,7377.41064453125,-5672.1943359375,-4948.41943359375,0.0
2021-06-21 10:18:59.334373,-1052.4000244140625,-2482.91357421875,-3124.25537109375,-3623.33642578125,-2921.42919921875,-2556.836669921875,-660.0783081054688,-802.5118408203125,520.0613403320312,-9816.30078125,8378.09765625,7941.73828125,2070.718505859375,-4309.00634765625,-1535.142822265625,-670.6499633789062,-3.9000000953674316,-10.5,9077.0419921875,6842.14404296875,-10.5,-5919.9521484375,-4099.49169921875,-3265.908935546875,0.0
2021-06-21 10:18:59.334373,-809.7000122070312,-1925.628662109375,-2631.535888671875,-3209.712158203125,-2665.168701171875,-2325.865478515625,-607.8958129882812,-812.4193115234375,74.29447174072266,-9382.5234375,9819.900390625,8798.4052734375,3416.056640625,-1854.793212890625,-197.02047729492188,-143.79647827148438,-3.9000000953674316,-10.5,9806.7001953125,5699.39013671875,-11.100000381469727,-9810.6005859375,-3363.67041015625,-2343.95654296875,0.0
2021-06-21 10:18:59.335403,-612.5999755859375,-2565.906982421875,-2966.513427734375,-2648.81494140625,-2784.77685546875,-2044.033203125,-461.5450134277344,-258.19683837890625,668.6503295898438,5124.1396484375,-4363.16845703125,-6933.47216796875,-3318.72021484375,-4666.74462890625,-1155.773681640625,-497.73394775390625,-4.5,-10.5,-4385.43603515625,-7365.4443359375,-10.5,-2069.423583984375,-5482.333984375,-4377.40185546875,0.0
2021-06-21 10:18:59.336404,173.6999969482422,-2426.88525390625,-2873.54736328125,-1581.3104248046875,-2178.363525390625,-951.1096801757812,648.3822631835938,1331.8154296875,1783.0675048828125,9816.0,-9820.2001953125,-9798.0,-7955.5244140625,-8014.4052734375,-1968.408203125,-170.21420288085938,-3.9000000953674316,-10.800000190734863,-9807.0,-9815.400390625,-10.800000190734863,9810.2998046875,-6316.2255859375,-5379.00341796875,0.0
2021-06-21 10:18:59.336404,-8.100000381469727,-2316.926513671875,-2874.14697265625,-2177.60107421875,-2355.084716796875,-1349.02587890625,506.5299072265625,987.7530517578125,1783.0675048828125,3714.36474609375,-7308.5087890625,-7716.8818359375,-4570.0166015625,-7730.2490234375,-2263.340087890625,-339.8280029296875,-3.5999999046325684,-9.899999618530273,-5871.390625,-5850.359375,-10.800000190734863,7361.54248046875,-5527.18310546875,-4845.115234375,0.0
2021-06-21 10:18:59.337406,-963.0,-2492.201416015625,-2964.7138671875,-3571.14599609375,-3018.0126953125,-2520.03662109375,-626.4896240234375,-782.3964233398438,742.9447631835938,-9816.30078125,8233.0478515625,7564.08740234375,2057.2412109375,-4223.46044921875,-1586.34423828125,-635.2261962890625,-3.5999999046325684,-10.5,9037.53515625,6743.294921875,-11.399999618530273,-5995.69921875,-4013.0830078125,-3253.033203125,0.0
2021-06-21 10:18:59.338404,-697.7999877929688,-2026.299560546875,-2466.29638671875,-3207.3125,-2670.251953125,-2437.461669921875,-550.315185546875,-880.87158203125,148.5889434814453,-9338.7861328125,9819.900390625,8765.8134765625,3328.603515625,-1771.6400146484375,-317.0892028808594,-44.129608154296875,-3.299999952316284,-10.5,9806.7001953125,5760.49658203125,-10.800000190734863,-9810.6005859375,-3302.376708984375,-2358.329345703125,0.0
2021-06-21 10:18:59.338404,-645.5999755859375,-2616.841552734375,-2905.635498046875,-2617.62060546875,-2794.04638671875,-2243.888916015625,-463.34442138671875,-338.0577087402344,817.2391967773438,5157.09228515625,-4285.2490234375,-7107.7958984375,-3400.18310546875,-4667.3427734375,-1304.8863525390625,-386.9596252441406,-3.9000000953674316,-10.5,-4353.412109375,-7275.58154296875,-10.800000190734863,-2090.081787109375,-5432.40234375,-4383.390625,0.0
2021-06-21 10:18:59.339404,135.89999389648438,-2467.33349609375,-2822.26611328125,-1535.118896484375,-2087.46142578125,-1180.8839111328125,538.0193481445312,1329.713623046875,1634.4783935546875,9816.0,-9820.2001953125,-9798.0,-7964.80908203125,-8038.03515625,-2119.616943359375,-29.719940185546875,-3.5999999046325684,-10.5,-9807.0,-9815.400390625,-10.800000190734863,9810.2998046875,-6381.10693359375,-5433.2001953125,0.0
2021-06-21 10:18:59.339404,-100.5,-2408.30908203125,-2821.066650390625,-2113.712890625,-2324.285400390625,-1536.0167236328125,396.1669616699219,950.5245971679688,1783.0675048828125,3631.683349609375,-7118.20654296875,-7686.38232421875,-4612.8447265625,-7821.478515625,-2373.52783203125,-189.12689208984375,-3.299999952316284,-10.5,-5770.53125,-5886.30419921875,-10.800000190734863,7239.98828125,-5629.73779296875,-4912.787109375,0.0
2021-06-21 10:18:59.340404,-1036.800048828125,-2576.09375,-3033.988525390625,-3511.156982421875,-3004.556640625,-2672.62109375,-658.2789306640625,-821.4262084960938,742.9447631835938,-9816.30078125,8369.107421875,7694.4560546875,2022.4996337890625,-4259.9521484375,-1743.8408203125,-506.739990234375,-3.5999999046325684,-10.800000190734863,9093.203125,6581.5419921875,-11.100000381469727,-6076.5361328125,-4140.7529296875,-3348.8515625,0.0
2021-06-21 10:18:59.341403,-727.5,-2015.2137451171875,-2545.767333984375,-3217.2109375,-2632.575439453125,-2485.0322265625,-500.8318176269531,-809.1168212890625,222.88343811035156,-9349.5703125,9819.900390625,8750.8623046875,3413.061767578125,-1754.5906982421875,-388.3519287109375,39.6265869140625,-3.5999999046325684,-10.5,9806.7001953125,5566.39306640625,-10.800000190734863,-9810.6005859375,-3365.46435546875,-2381.385498046875,0.0
2021-06-21 10:18:59.341403,-650.0999755859375,-2592.872314453125,-2988.105224609375,-2634.717529296875,-2760.855224609375,-2169.391845703125,-459.74560546875,-253.6934051513672,742.9447631835938,4966.86572265625,-4460.26708984375,-7079.98779296875,-3375.025634765625,-4594.658203125,-1266.8597412109375,-377.9535827636719,-3.5999999046325684,-10.199999809265137,-4447.38818359375,-7436.13623046875,-10.5,-2336.783935546875,-5477.84912109375,-4428.005859375,0.0
2021-06-21 10:18:59.342373,157.8000030517578,-2401.7177734375,-2836.66064453125,-1587.9091796875,-2016.8924560546875,-1153.6580810546875,599.1987915039062,1311.0994873046875,1783.0675048828125,9816.0,-9820.2001953125,-9798.0,-7955.82421875,-7944.1142578125,-2033.98193359375,-60.340484619140625,-3.9000000953674316,-10.199999809265137,-9807.0,-9815.400390625,-10.800000190734863,9810.2998046875,-6369.7451171875,-5463.1435546875,0.0
2021-06-21 10:18:59.343374,-91.5,-2333.105712890625,-2850.15576171875,-2068.121337890625,-2235.177490234375,-1387.9200439453125,501.73150634765625,1020.4779663085938,1634.4783935546875,3706.2763671875,-7331.28515625,-7675.3193359375,-4482.5634765625,-7672.22119140625,-2236.391845703125,-178.61984252929688,-3.9000000953674316,-10.5,-5887.85107421875,-5866.2353515625,-10.5,7240.88623046875,-5621.36572265625,-4946.32373046875,0.0
2021-06-21 10:18:59.395161,-1015.5,-2503.5869140625,-3110.16064453125,-3580.744140625,-2999.174560546875,-2638.813232421875,-681.9710083007812,-826.2298583984375,742.9447631835938,-9816.30078125,8218.3642578125,7580.83154296875,1985.3619384765625,-4201.62548828125,-1625.568603515625,-576.9871215820312,-3.5999999046325684,-10.5,9034.2431640625,6641.15087890625,-11.100000381469727,-6045.6982421875,-4192.77783203125,-3411.732421875,0.0
2021-06-21 10:18:59.396172,-828.0,-2018.5093994140625,-2630.636474609375,-3247.205322265625,-2762.6494140625,-2489.52001953125,-654.3802490234375,-876.9685668945312,74.29447174072266,-9354.6630859375,9819.900390625,8757.44140625,3278.587890625,-1850.00732421875,-353.0199890136719,-118.57955932617188,-3.9000000953674316,-10.199999809265137,9806.7001953125,5555.0107421875,-10.800000190734863,-9810.6005859375,-3421.0771484375,-2504.452392578125,0.0
2021-06-21 10:18:59.397170,-710.7000122070312,-2599.4638671875,-3105.962158203125,-2699.8056640625,-2823.6494140625,-2239.101806640625,-559.9119262695312,-384.8934326171875,891.5337524414062,5180.1591796875,-4641.279296875,-7086.267578125,-3431.031494140625,-4771.13427734375,-1294.7059326171875,-544.5653686523438,-3.5999999046325684,-10.5,-4471.63037109375,-7381.31982421875,-10.800000190734863,-2018.526123046875,-5602.23046875,-4540.5927734375,0.0
2021-06-21 10:18:59.397170,74.0999984741211,-2438.5703125,-2871.148193359375,-1454.43359375,-2036.9268798828125,-1090.8292236328125,606.096435546875,1277.774169921875,1560.1839599609375,9816.0,-9820.2001953125,-9798.0,-7925.57470703125,-8072.732421875,-1999.248779296875,-137.19204711914062,-3.299999952316284,-10.5,-9807.0,-9815.400390625,-11.100000381469727,9810.2998046875,-6433.7294921875,-5462.84423828125,0.0
2021-06-21 10:18:59.398170,-223.5,-2477.820068359375,-2925.12841796875,-2219.29345703125,-2404.1240234375,-1514.17626953125,391.0686950683594,815.7218627929688,1485.8895263671875,3896.802490234375,-7042.38525390625,-7277.93359375,-4614.34228515625,-7866.94287109375,-2380.114990234375,-355.7386779785156,-3.5999999046325684,-10.199999809265137,-5687.03076171875,-5534.64208984375,-10.5,7307.951171875,-5721.2294921875,-5063.10205078125,0.0
2021-06-21 10:18:59.399170,-1177.199951171875,-2520.06591796875,-3086.469482421875,-3594.541748046875,-3036.2529296875,-2704.03564453125,-712.5607299804688,-852.3497924804688,520.0613403320312,-9816.30078125,8467.10546875,7973.43310546875,1986.8594970703125,-4282.6845703125,-1630.658935546875,-585.6929321289062,-3.9000000953674316,-10.5,9127.62109375,7021.5693359375,-10.800000190734863,-5901.68896484375,-4198.45849609375,-3387.17919921875,0.0
2021-06-21 10:18:59.400170,-921.2999877929688,-2099.40576171875,-2633.33544921875,-3261.902587890625,-2739.32568359375,-2493.70849609375,-635.7864990234375,-958.630859375,74.29447174072266,-9306.1328125,9819.900390625,8976.0185546875,3287.8720703125,-1943.3302001953125,-355.71478271484375,-87.35861206054688,-3.9000000953674316,-10.5,9806.7001953125,5919.85302734375,-10.800000190734863,-9810.6005859375,-3500.907958984375,-2548.468994140625,0.0
2021-06-21 10:18:59.401170,-797.0999755859375,-2703.72998046875,-3066.376708984375,-2683.608642578125,-2737.53173828125,-2272.610595703125,-476.53997802734375,-374.6856384277344,668.6503295898438,5233.7822265625,-3821.630615234375,-6441.2998046875,-3439.716796875,-4799.2509765625,-1271.650390625,-466.51300048828125,-3.299999952316284,-10.800000190734863,-4134.03564453125,-7162.35400390625,-10.800000190734863,-1917.330322265625,-5651.564453125,-4577.4228515625,0.0
2021-06-21 10:18:59.402171,-61.5,-2579.989013671875,-2953.617919921875,-1609.205322265625,-2137.098876953125,-1257.7744140625,462.1448059082031,1127.0592041015625,1560.1839599609375,9816.0,-9820.2001953125,-9798.0,-8060.947265625,-8172.9345703125,-2051.3486328125,-226.35186767578125,-3.9000000953674316,-10.199999809265137,-9807.0,-9815.400390625,-10.5,9810.2998046875,-6547.3466796875,-5538.001953125,0.0
2021-06-21 10:18:59.403170,-350.3999938964844,-2479.018310546875,-2982.407470703125,-2280.7822265625,-2408.609130859375,-1593.4603271484375,260.0126953125,721.4500122070312,1485.8895263671875,3765.591064453125,-6667.474609375,-7100.61962890625,-4671.5458984375,-7829.2548828125,-2323.524169921875,-358.7406921386719,-3.299999952316284,-10.5,-5498.779296875,-5634.09033203125,-10.800000190734863,7227.41357421875,-5836.341796875,-5106.8193359375,0.0
2021-06-21 10:18:59.404170,-1202.699951171875,-2481.11572265625,-3099.364501953125,-3620.036865234375,-2915.44873046875,-2738.44189453125,-726.3560791015625,-960.1320190429688,520.0613403320312,-9816.30078125,8619.3466796875,8051.17626953125,2035.3779296875,-4223.46044921875,-1609.9986572265625,-618.4149169921875,-3.299999952316284,-10.5,9207.5302734375,6819.0791015625,-10.800000190734863,-5950.19140625,-4190.98388671875,-3373.105712890625,0.0
2021-06-21 10:18:59.404170,-862.2000122070312,-2007.1240234375,-2574.2568359375,-3229.208740234375,-2566.491943359375,-2518.840087890625,-651.9810791015625,-985.6514282226562,0.0,-9349.8701171875,9819.900390625,8861.4970703125,3365.142333984375,-1772.83642578125,-292.8359069824219,-35.42376708984375,-3.9000000953674316,-10.199999809265137,9806.7001953125,5737.43212890625,-10.800000190734863,-9810.6005859375,-3377.125,-2502.65576171875,0.0
2021-06-21 10:18:59.405170,-770.0999755859375,-2605.755859375,-3022.292724609375,-2655.713623046875,-2704.041259765625,-2307.316162109375,-615.9931640625,-482.46783447265625,668.6503295898438,5032.77099609375,-4097.34423828125,-6768.71728515625,-3406.47265625,-4654.7802734375,-1273.447021484375,-438.5942687988281,-3.5999999046325684,-10.5,-4130.1455078125,-7303.13916015625,-11.399999618530273,-2124.811767578125,-5607.9111328125,-4607.06640625,0.0
2021-06-21 10:18:59.406170,118.5,-2347.786865234375,-2824.365234375,-1561.214111328125,-1966.9561767578125,-1096.2144775390625,505.93011474609375,1197.6129150390625,1634.4783935546875,9816.0,-9820.2001953125,-9798.0,-7954.92529296875,-7915.39892578125,-1913.3143310546875,-79.55337524414062,-3.9000000953674316,-10.800000190734863,-9807.0,-9815.400390625,-10.800000190734863,9810.2998046875,-6356.88818359375,-5556.56640625,0.0
2021-06-21 10:18:59.407170,-116.69999694824219,-2312.43212890625,-2828.863525390625,-2189.89892578125,-2205.275390625,-1489.6429443359375,403.6644287109375,823.2275390625,1708.77294921875,3510.058349609375,-7138.884765625,-7592.4931640625,-4563.427734375,-7655.47119140625,-2181.59765625,-205.3377685546875,-3.5999999046325684,-10.199999809265137,-5560.13330078125,-5704.482421875,-11.100000381469727,7346.57275390625,-5578.60986328125,-4990.6396484375,0.0
2021-06-21 10:18:59.408170,-1092.300048828125,-2399.320556640625,-3011.197021484375,-3554.049072265625,-2925.017578125,-2638.21484375,-634.5869140625,-886.575927734375,668.6503295898438,-9816.30078125,8329.548828125,7716.8818359375,2059.337646484375,-4083.476318359375,-1451.903076171875,-548.4679565429688,-3.9000000953674316,-10.5,9172.5146484375,6691.17431640625,-11.100000381469727,-5965.1611328125,-4028.630615234375,-3327.292724609375,0.0
2021-06-21 10:18:59.409170,-844.2000122070312,-1925.0294189453125,-2550.565673828125,-3267.6015625,-2618.22265625,-2492.81103515625,-566.509765625,-955.028076171875,222.88343811035156,-9389.712890625,9819.900390625,8549.0302734375,3297.4560546875,-1685.1966552734375,-199.11643981933594,-54.936859130859375,-3.9000000953674316,-10.800000190734863,9806.7001953125,5482.8212890625,-10.800000190734863,-9810.6005859375,-3341.843994140625,-2463.130859375,0.0
2021-06-21 10:18:59.505579,-625.2000122070312,-2498.79296875,-3010.596923828125,-2582.527099609375,-2686.6982421875,-2196.318359375,-369.4759216308594,-302.33050537109375,742.9447631835938,4907.85009765625,-4937.072265625,-7393.65087890625,-3453.194091796875,-4581.79638671875,-1144.994384765625,-406.1725158691406,-3.9000000953674316,-10.5,-4625.46337890625,-7423.85498046875,-10.5,-2167.625244140625,-5443.166015625,-4447.169921875,0.0
2021-06-21 10:18:59.505579,164.10000610351562,-2354.37841796875,-2911.333251953125,-1597.807373046875,-2085.667236328125,-1119.85009765625,647.782470703125,1299.09033203125,1708.77294921875,9816.0,-9820.2001953125,-9798.0,-7995.05810546875,-7906.126953125,-1887.8634033203125,-113.47613525390625,-3.5999999046325684,-10.5,-9807.0,-9815.400390625,-10.800000190734863,9810.2998046875,-6344.9287109375,-5429.90673828125,0.0
2021-06-21 10:18:59.506619,-111.0,-2252.808837890625,-2966.21337890625,-2134.709228515625,-2306.34423828125,-1406.4696044921875,522.424560546875,996.4596557617188,1783.0675048828125,3501.37060546875,-7448.16357421875,-7810.771484375,-4491.24853515625,-7563.34423828125,-2108.538330078125,-208.940185546875,-3.9000000953674316,-10.199999809265137,-5915.6845703125,-5825.79736328125,-10.5,7284.59765625,-5574.42431640625,-4864.27880859375,0.0
2021-06-21 10:18:59.507619,-1142.699951171875,-2460.142822265625,-3175.83642578125,-3564.547119140625,-3028.478271484375,-2695.658447265625,-702.3641357421875,-860.4559326171875,742.9447631835938,-9816.30078125,8196.486328125,7565.880859375,2083.596923828125,-4116.0791015625,-1489.03173828125,-613.911865234375,-3.9000000953674316,-10.5,9084.5244140625,6651.0361328125,-11.100000381469727,-6184.01904296875,-4119.82373046875,-3347.3544921875,0.0
2021-06-21 10:18:59.507619,-829.5,-1944.204833984375,-2669.921875,-3307.1943359375,-2714.208251953125,-2488.02392578125,-545.2169189453125,-864.3589477539062,222.88343811035156,-9389.4130859375,9819.900390625,8781.6611328125,3295.06005859375,-1688.187744140625,-166.7787322998047,-69.34652709960938,-3.5999999046325684,-10.199999809265137,9806.7001953125,5707.47802734375,-10.800000190734863,-9810.6005859375,-3375.3310546875,-2395.758544921875,0.0
2021-06-21 10:18:59.508618,-775.5,-2611.448486328125,-3143.148681640625,-2723.80126953125,-2835.311279296875,-2236.4091796875,-500.8318176269531,-329.9515686035156,817.2391967773438,4992.62841796875,-4567.255859375,-6950.81494140625,-3518.18505859375,-4653.28466796875,-1208.47216796875,-469.5150146484375,-4.199999809265137,-10.199999809265137,-4512.93212890625,-7240.2353515625,-10.800000190734863,-2054.154296875,-5537.3486328125,-4432.1982421875,0.0
2021-06-21 10:18:59.509618,60.599998474121094,-2364.864990234375,-2944.3212890625,-1640.099609375,-2166.402587890625,-1100.403076171875,624.3903198242188,1323.408935546875,1708.77294921875,9816.0,-9820.2001953125,-9798.0,-7985.1748046875,-7909.4169921875,-1884.869140625,-113.77633666992188,-3.9000000953674316,-10.5,-9807.0,-9815.400390625,-10.5,9810.2998046875,-6334.1650390625,-5364.03173828125,0.0
2021-06-21 10:18:59.509618,-297.8999938964844,-2418.795654296875,-3053.78125,-2272.983642578125,-2495.026123046875,-1591.365966796875,367.37664794921875,884.7744750976562,1485.8895263671875,3624.194091796875,-6683.35791015625,-6827.0244140625,-4611.646484375,-7665.341796875,-2243.578125,-409.1745300292969,-3.5999999046325684,-10.5,-5423.060546875,-5422.013671875,-11.100000381469727,7214.53955078125,-5688.04150390625,-4904.40283203125,0.0
2021-06-21 10:18:59.510647,-1135.199951171875,-2459.54345703125,-3139.249755859375,-3604.139892578125,-3119.081787109375,-2733.655029296875,-653.4805908203125,-898.2847900390625,742.9447631835938,-9816.30078125,8704.1591796875,8296.365234375,2090.185791015625,-4081.083251953125,-1516.2791748046875,-642.731201171875,-3.5999999046325684,-10.5,9275.1689453125,7316.3193359375,-11.100000381469727,-6011.86669921875,-4085.73828125,-3240.15771484375,0.0
2021-06-21 10:18:59.511625,-856.7999877929688,-2069.14453125,-2708.907470703125,-3282.598876953125,-2803.615234375,-2544.869140625,-620.79150390625,-881.772216796875,-74.29447174072266,-9351.6669921875,9819.900390625,9156.3212890625,3283.379638671875,-1705.83544921875,-281.45782470703125,-139.29345703125,-3.5999999046325684,-10.800000190734863,9806.7001953125,6172.06787109375,-10.5,-9810.6005859375,-3418.385986328125,-2342.16015625,0.0
2021-06-21 10:18:59.511625,-759.2999877929688,-2684.854248046875,-3167.739501953125,-2746.59716796875,-2864.615234375,-2329.455810546875,-614.7935791015625,-438.93463134765625,668.6503295898438,5037.86376953125,-3419.4482421875,-5923.11376953125,-3497.22021484375,-4638.3291015625,-1241.7080078125,-576.38671875,-3.9000000953674316,-10.5,-4093.63232421875,-7076.685546875,-10.800000190734863,-2132.595947265625,-5554.6904296875,-4419.02294921875,0.0
2021-06-21 10:18:59.512618,-6.599999904632568,-2540.139892578125,-3049.28271484375,-1681.7919921875,-2236.67236328125,-1315.81640625,334.3876953125,1067.013427734375,1560.1839599609375,9816.0,-9820.2001953125,-9798.0,-8137.31884765625,-8079.013671875,-2096.261962890625,-332.3229675292969,-3.5999999046325684,-10.5,-9807.0,-9815.400390625,-10.800000190734863,9810.2998046875,-6520.73681640625,-5435.8955078125,0.0
2021-06-21 10:18:59.512618,-234.60000610351562,-2494.898193359375,-3037.88720703125,-2324.274169921875,-2416.682861328125,-1678.4288330078125,199.4330291748047,695.330078125,1485.8895263671875,3529.5302734375,-6297.95849609375,-6369.537109375,-4693.70849609375,-7804.4287109375,-2363.347412109375,-429.888427734375,-3.5999999046325684,-10.5,-5259.3505859375,-5417.22119140625,-10.5,7090.29052734375,-5805.24658203125,-4935.24462890625,0.0
2021-06-21 10:18:59.513626,-1086.300048828125,-2475.72265625,-3101.763671875,-3618.537353515625,-3038.645263671875,-2682.195068359375,-722.1575317382812,-923.8042602539062,520.0613403320312,-9816.30078125,8783.8759765625,8485.9384765625,2028.1900634765625,-4131.63330078125,-1594.4285888671875,-627.1207885742188,-4.199999809265137,-10.5,9306.59375,7221.6640625,-10.800000190734863,-5936.4189453125,-4198.1591796875,-3201.830322265625,0.0
2021-06-21 10:18:59.514618,-750.0,-1962.4814453125,-2580.5546875,-3287.697998046875,-2707.9287109375,-2528.713134765625,-657.079345703125,-974.5429077148438,-148.5889434814453,-9277.0751953125,9819.900390625,9104.8916015625,3301.349365234375,-1744.1217041015625,-328.46728515625,-78.35256958007812,-3.9000000953674316,-9.899999618530273,9806.7001953125,6204.11865234375,-10.800000190734863,-9810.6005859375,-3401.343505859375,-2358.030029296875,0.0
2021-06-21 10:18:59.514618,-650.0999755859375,-2596.168212890625,-2992.3037109375,-2622.7197265625,-2809.296630859375,-2309.111083984375,-544.9169921875,-319.7437744140625,668.6503295898438,5191.84228515625,-3638.22119140625,-6008.03271484375,-3474.158935546875,-4608.716796875,-1229.13232421875,-481.8232727050781,-4.199999809265137,-10.199999809265137,-4093.63232421875,-6990.41748046875,-10.800000190734863,-1735.59716796875,-5594.75537109375,-4457.94921875,0.0
2021-06-21 10:18:59.515619,55.5,-2503.88671875,-2854.654052734375,-1629.3016357421875,-2174.775146484375,-1311.0294189453125,301.0989074707031,1196.71240234375,1560.1839599609375,9816.0,-9820.2001953125,-9798.0,-8106.470703125,-8006.02978515625,-2104.9453125,-310.1080627441406,-3.5999999046325684,-10.800000190734863,-9807.0,-9815.400390625,-10.800000190734863,9810.2998046875,-6461.53564453125,-5540.09765625,0.0
2021-06-21 10:18:59.515619,-291.6000061035156,-2455.9482421875,-2921.22998046875,-2233.69091796875,-2422.3642578125,-1617.9935302734375,137.65377807617188,831.0335693359375,1485.8895263671875,3563.98095703125,-6499.94873046875,-6618.31494140625,-4675.73876953125,-7745.20458984375,-2360.652587890625,-439.494873046875,-3.5999999046325684,-10.199999809265137,-5253.66455078125,-5340.23876953125,-11.100000381469727,7325.01611328125,-5677.57666015625,-5020.8818359375,0.0
2021-06-21 10:18:59.553234,-1029.9000244140625,-2501.18994140625,-3001.600341796875,-3452.667724609375,-2960.89990234375,-2688.178955078125,-792.0339965820312,-789.0015258789062,594.3557739257812,-9816.30078125,8715.546875,8402.8134765625,2038.67236328125,-4019.765380859375,-1561.79150390625,-581.18994140625,-3.5999999046325684,-10.5,9325.150390625,7333.39306640625,-11.100000381469727,-5731.63232421875,-3997.535400390625,-3277.5869140625,0.0
2021-06-21 10:18:59.553234,-819.5999755859375,-1962.781005859375,-2510.08056640625,-3050.44140625,-2676.531494140625,-2458.70361328125,-747.9488525390625,-829.2321166992188,0.0,-9237.2314453125,9819.900390625,9000.8359375,3307.638916015625,-1701.6478271484375,-274.27166748046875,-0.300201416015625,-3.9000000953674316,-10.5,9806.7001953125,6149.0029296875,-11.100000381469727,-9810.6005859375,-3281.447265625,-2444.865234375,0.0
2021-06-21 10:18:59.554234,-729.9000244140625,-2550.02734375,-2933.8251953125,-2536.03564453125,-2723.776611328125,-2118.82958984375,-623.4906616210938,-291.8224792480469,594.3557739257812,5197.83349609375,-3939.408203125,-6290.59814453125,-3437.021484375,-4621.578125,-1260.57177734375,-406.1725158691406,-3.5999999046325684,-10.5,-4072.38330078125,-7021.27001953125,-11.100000381469727,-1742.78271484375,-5343.6015625,-4461.2431640625,0.0
2021-06-21 10:18:59.555233,-37.79999923706055,-2449.955810546875,-2806.371826171875,-1475.729736328125,-2131.417236328125,-1068.390380859375,355.98046875,1188.9063720703125,1411.5950927734375,9816.0,-9820.2001953125,-9798.0,-8057.65283203125,-7977.0166015625,-2024.400390625,-189.42709350585938,-3.9000000953674316,-10.5,-9807.0,-9815.400390625,-11.100000381469727,9810.2998046875,-6255.82861328125,-5472.12646484375,0.0
2021-06-21 10:18:59.555233,-209.10000610351562,-2365.464111328125,-2894.23974609375,-2147.306640625,-2447.48193359375,-1476.778076171875,210.22940063476562,779.0939331054688,1485.8895263671875,3434.26708984375,-6667.474609375,-7076.69873046875,-4623.3271484375,-7730.84716796875,-2281.60498046875,-350.3350524902344,-3.9000000953674316,-10.5,-5176.44873046875,-5368.6953125,-11.100000381469727,7203.16259765625,-5502.06787109375,-4942.73046875,0.0
2021-06-21 10:18:59.556233,-1125.0,-2356.176025390625,-2954.8173828125,-3378.881103515625,-2944.15478515625,-2546.365234375,-771.3409423828125,-796.5072631835938,520.0613403320312,-9816.30078125,8657.7080078125,8206.662109375,2069.220947265625,-3997.93017578125,-1481.845458984375,-557.7742309570312,-3.9000000953674316,-10.199999809265137,9335.625,7061.40869140625,-11.100000381469727,-5983.125,-3944.314697265625,-3160.80810546875,0.0
2021-06-21 10:18:59.556233,-845.4000244140625,-1944.50439453125,-2461.498046875,-3151.82275390625,-2610.447998046875,-2402.45703125,-688.5687866210938,-789.3017578125,0.0,-9304.9345703125,9819.900390625,8591.1904296875,3316.32421875,-1659.7720947265625,-226.96279907226562,-0.60040283203125,-3.5999999046325684,-10.199999809265137,9806.7001953125,5690.703125,-10.800000190734863,-9810.6005859375,-3180.3876953125,-2336.770263671875,0.0
2021-06-21 10:18:59.557233,-707.4000244140625,-2584.18359375,-3010.297119140625,-2638.31689453125,-2766.237548828125,-2234.913330078125,-570.1085205078125,-240.48333740234375,520.0613403320312,5175.3662109375,-4614.30712890625,-7114.0751953125,-3541.84521484375,-4647.0029296875,-1242.9058837890625,-472.8172302246094,-3.9000000953674316,-10.199999809265137,-4251.05712890625,-7423.85498046875,-11.100000381469727,-1890.983642578125,-5379.779296875,-4357.33984375,0.0
2021-06-21 10:18:59.558233,120.30000305175781,-2485.610107421875,-2820.466796875,-1458.3328857421875,-2056.961181640625,-1100.1038818359375,504.7304992675781,1354.6326904296875,1485.8895263671875,9816.0,-9820.2001953125,-9798.0,-8028.00244140625,-7943.81494140625,-2009.4293212890625,-96.36465454101562,-4.199999809265137,-10.199999809265137,-9807.0,-9815.400390625,-10.800000190734863,9810.2998046875,-6235.79638671875,-5356.84521484375,0.0
2021-06-21 10:18:59.558233,-63.599998474121094,-2301.646240234375,-2821.066650390625,-2078.3193359375,-2295.87841796875,-1414.547607421875,358.6795349121094,995.8591918945312,1337.3006591796875,3531.028076171875,-7566.8408203125,-8060.146484375,-4578.70166015625,-7587.2734375,-2324.42236328125,-265.97845458984375,-3.9000000953674316,-10.5,-5637.3486328125,-5781.1650390625,-10.800000190734863,7337.5908203125,-5464.39453125,-4797.2060546875,0.0
2021-06-21 10:18:59.559233,-1045.199951171875,-2526.35791015625,-3103.262939453125,-3591.84228515625,-2988.708740234375,-2678.904052734375,-757.5455932617188,-876.6683349609375,371.4723815917969,-9816.30078125,8127.857421875,7381.39111328125,2058.738525390625,-4066.127685546875,-1665.99072265625,-617.8145141601562,-3.5999999046325684,-10.5,9191.9677734375,6394.328125,-10.800000190734863,-5879.234375,-3981.987548828125,-3251.5361328125,0.0
2021-06-21 10:18:59.559233,-783.0,-2002.929443359375,-2666.9228515625,-3286.498291015625,-2772.81591796875,-2561.025146484375,-629.4886474609375,-861.9570922851562,0.0,-9286.0625,9819.900390625,8133.10546875,3205.211181640625,-1743.5234375,-347.6303405761719,-63.342498779296875,-3.9000000953674316,-10.199999809265137,9806.7001953125,4914.88916015625,-10.800000190734863,-9810.6005859375,-3280.55029296875,-2403.543701171875,0.0
2021-06-21 10:18:59.560233,-673.5,-2636.016845703125,-3040.885986328125,-2654.2138671875,-2830.22802734375,-2255.856201171875,-507.12969970703125,-260.5986633300781,520.0613403320312,5199.33154296875,-5622.759765625,-8022.77001953125,-3567.302490234375,-4666.4453125,-1241.1092529296875,-479.4216613769531,-3.9000000953674316,-10.5,-4825.38623046875,-7755.1484375,-10.800000190734863,-1809.8472900390625,-5395.3271484375,-4477.11279296875,0.0
2021-06-21 10:18:59.561233,177.0,-2404.414306640625,-2872.947509765625,-1602.9063720703125,-2150.255615234375,-1135.1085205078125,517.0263671875,1385.8565673828125,1560.1839599609375,9816.0,-9820.2001953125,-9798.0,-8063.9423828125,-8026.6689453125,-1872.8922119140625,-72.64874267578125,-3.5999999046325684,-10.5,-9807.0,-9815.400390625,-10.800000190734863,9810.2998046875,-6183.47216796875,-5427.810546875,0.0
2021-06-21 10:18:59.561233,-139.8000030517578,-2347.4873046875,-2966.81298828125,-2159.6044921875,-2398.1435546875,-1435.7896728515625,459.14581298828125,1076.9210205078125,1337.3006591796875,3550.799560546875,-7743.35693359375,-8183.33984375,-4542.76220703125,-7696.44921875,-2196.269287109375,-185.82467651367188,-3.9000000953674316,-10.5,-5907.3046875,-5907.2724609375,-11.100000381469727,7295.97509765625,-5394.43017578125,-4899.0126953125,0.0
2021-06-21 10:18:59.562233,-1012.7999877929688,-2452.65234375,-3040.885986328125,-3675.226806640625,-3013.826416015625,-2629.837646484375,-677.172607421875,-748.7708740234375,520.0613403320312,-9816.30078125,8070.91650390625,7274.943359375,2069.820068359375,-4078.989501953125,-1505.5,-589.29541015625,-3.299999952316284,-10.5,9111.7587890625,6452.43896484375,-11.100000381469727,-6004.3818359375,-3877.938232421875,-3311.72216796875,0.0
2021-06-21 10:18:59.562233,-767.0999755859375,-2117.981689453125,-2590.151123046875,-3335.9892578125,-2727.364990234375,-2441.35107421875,-566.8096923828125,-755.6760864257812,74.29447174072266,-9254.0078125,9819.900390625,8452.7490234375,3279.186767578125,-1730.362548828125,-252.11434936523438,-106.8717041015625,-3.299999952316284,-10.199999809265137,9806.7001953125,5220.7216796875,-10.800000190734863,-9810.6005859375,-3217.462890625,-2422.707275390625,0.0
2021-06-21 10:18:59.581330,-615.0,-2677.963134765625,-3063.377685546875,-2747.796875,-2805.409423828125,-2123.91552734375,-467.24310302734375,-197.25038146972656,668.6503295898438,5150.20263671875,-5182.21728515625,-7637.6435546875,-3417.853759765625,-4679.9052734375,-1176.4337158203125,-486.92669677734375,-3.299999952316284,-10.5,-5023.21435546875,-7560.74560546875,-10.800000190734863,-1887.0914306640625,-5272.14208984375,-4521.12939453125,0.0
2021-06-21 10:18:59.582364,108.5999984741211,-2471.82763671875,-2925.12841796875,-1607.70556640625,-2203.7802734375,-1056.4229736328125,581.8046264648438,1414.0780029296875,1560.1839599609375,9816.0,-9820.2001953125,-9798.0,-7907.90478515625,-8014.10595703125,-1886.0667724609375,-211.341796875,-3.9000000953674316,-10.5,-9807.0,-9815.400390625,-10.800000190734863,9810.2998046875,-6212.474609375,-5444.87841796875,0.0
2021-06-21 10:18:59.582364,-180.0,-2443.064453125,-3006.698486328125,-2273.883544921875,-2448.97705078125,-1500.712890625,325.3907470703125,988.05322265625,1634.4783935546875,3404.010498046875,-7061.265625,-7435.212890625,-4492.1474609375,-7690.76611328125,-2190.580322265625,-332.3229675292969,-3.9000000953674316,-10.199999809265137,-5766.04150390625,-5673.62939453125,-11.100000381469727,7212.14453125,-5523.2958984375,-4972.67333984375,0.0
2021-06-21 10:18:59.583362,-1161.5999755859375,-2627.0283203125,-3167.139892578125,-3711.520263671875,-3053.59619140625,-2696.2568359375,-684.6701049804688,-842.742431640625,445.7668762207031,-9816.30078125,8543.826171875,7938.14990234375,2152.780517578125,-4105.01220703125,-1548.9163818359375,-682.3578491210938,-3.5999999046325684,-10.5,9190.4716796875,6792.71923828125,-10.800000190734863,-6114.26025390625,-4019.36181640625,-3318.60888671875,0.0
2021-06-21 10:18:59.583362,-840.5999755859375,-2133.26220703125,-2682.21728515625,-3284.698486328125,-2732.1494140625,-2517.044921875,-577.6060180664062,-972.4413452148438,-74.29447174072266,-9264.7919921875,9819.900390625,8874.0556640625,3313.92822265625,-1758.47900390625,-302.1180419921875,-6.60443115234375,-3.5999999046325684,-10.199999809265137,9806.7001953125,5753.9072265625,-10.800000190734863,-9810.6005859375,-3301.77880859375,-2450.255126953125,0.0
2021-06-21 10:18:59.584368,-736.7999877929688,-2683.656005859375,-3092.46728515625,-2751.696044921875,-2882.556640625,-2244.4873046875,-560.5117797851562,-343.7620849609375,594.3557739257812,5172.9697265625,-4151.587890625,-6647.318359375,-3490.0322265625,-4736.736328125,-1242.306884765625,-421.4827880859375,-3.5999999046325684,-10.5,-4620.076171875,-7270.189453125,-11.100000381469727,-1762.8421630859375,-5428.21630859375,-4505.55908203125,0.0
2021-06-21 10:18:59.585362,75.30000305175781,-2585.082275390625,-2952.118408203125,-1666.19482421875,-2241.456787109375,-1212.29833984375,443.25115966796875,1240.545654296875,1485.8895263671875,9816.0,-9820.2001953125,-9798.0,-8052.26171875,-8076.0224609375,-2039.970458984375,-189.12689208984375,-3.5999999046325684,-10.199999809265137,-9807.0,-9815.400390625,-11.399999618530273,9810.2998046875,-6304.86376953125,-5534.40869140625,0.0
2021-06-21 10:18:59.585362,-300.8999938964844,-2517.668701171875,-3073.27392578125,-2375.56494140625,-2506.08984375,-1592.86181640625,210.82919311523438,751.472900390625,1337.3006591796875,3314.139404296875,-6535.01220703125,-6789.0498046875,-4559.83349609375,-7780.5,-2409.458740234375,-458.4075622558594,-3.299999952316284,-10.5,-5483.51611328125,-5617.3154296875,-10.5,7113.64306640625,-5604.6220703125,-4968.78076171875,0.0
2021-06-21 10:18:59.586361,-1119.300048828125,-2424.7880859375,-3083.170654296875,-3645.5322265625,-2924.120361328125,-2691.769287109375,-778.2386474609375,-930.7095336914062,520.0613403320312,-9816.30078125,8753.6083984375,8369.921875,2142.897216796875,-4079.587646484375,-1665.69140625,-660.1429443359375,-3.5999999046325684,-10.5,9282.3515625,7035.048828125,-10.800000190734863,-6103.78125,-3945.211669921875,-3250.33837890625,0.0
2021-06-21 10:18:59.586361,-849.0,-1976.2637939453125,-2658.825927734375,-3246.9052734375,-2646.62939453125,-2516.745849609375,-688.86865234375,-967.33740234375,-148.5889434814453,-9245.6201171875,9819.900390625,8963.7587890625,3324.710205078125,-1808.4307861328125,-454.8238830566406,-109.87371826171875,-3.9000000953674316,-10.199999809265137,9806.7001953125,5752.109375,-10.5,-9810.6005859375,-3346.02978515625,-2414.02392578125,0.0
2021-06-21 10:18:59.587364,-733.2000122070312,-2600.9619140625,-3106.86181640625,-2670.7109375,-2704.041259765625,-2311.504638671875,-547.9159545898438,-375.8865661621094,668.6503295898438,5187.6484375,-4024.219970703125,-6266.9765625,-3508.60107421875,-4738.53125,-1331.83447265625,-501.33636474609375,-3.5999999046325684,-10.199999809265137,-4459.95849609375,-7193.80615234375,-10.800000190734863,-1945.1741943359375,-5432.103515625,-4480.40673828125,0.0
2021-06-21 10:18:59.588360,-44.70000076293945,-2520.964599609375,-3061.87841796875,-1583.7099609375,-2063.539794921875,-1275.7255859375,419.25921630859375,1248.9521484375,1560.1839599609375,9816.0,-9820.2001953125,-9798.0,-7962.71240234375,-8013.80712890625,-2122.91064453125,-334.7245788574219,-3.9000000953674316,-10.5,-9807.0,-9815.400390625,-10.800000190734863,9810.2998046875,-6382.00390625,-5488.89453125,0.0
2021-06-21 10:18:59.588360,-274.5,-2560.21435546875,-3014.19580078125,-2260.98583984375,-2297.672607421875,-1672.4451904296875,232.4219512939453,851.1488647460938,1485.8895263671875,3358.17626953125,-6448.40234375,-6535.78759765625,-4445.7255859375,-7704.525390625,-2369.934814453125,-405.872314453125,-3.299999952316284,-10.5,-5235.70751953125,-5288.11865234375,-10.199999809265137,7052.56591796875,-5627.046875,-4952.91064453125,0.0
2021-06-21 10:18:59.589360,-1121.699951171875,-2524.56005859375,-3106.261962890625,-3488.961181640625,-2815.27685546875,-2666.637451171875,-746.4493408203125,-837.9387817382812,445.7668762207031,-9816.30078125,8785.6748046875,8435.4052734375,2290.848388671875,-4030.533447265625,-1634.251953125,-618.11474609375,-3.5999999046325684,-10.199999809265137,9374.8310546875,7364.54541015625,-11.100000381469727,-6095.99658203125,-4001.422119140625,-3225.485595703125,0.0
2021-06-21 10:18:59.589360,-859.2000122070312,-2042.17919921875,-2665.123779296875,-3138.025390625,-2530.908447265625,-2551.750244140625,-674.7734375,-954.12744140625,0.0,-9174.62109375,9819.900390625,9025.654296875,3357.65478515625,-1682.8038330078125,-365.8951721191406,-111.6749267578125,-3.5999999046325684,-10.5,9806.7001953125,6134.92431640625,-11.100000381469727,-9810.6005859375,-3356.195556640625,-2379.589111328125,0.0
2021-06-21 10:18:59.590360,-769.7999877929688,-2593.171875,-3046.8837890625,-2536.935302734375,-2643.938232421875,-2262.7373046875,-521.2249755859375,-322.4458312988281,742.9447631835938,5385.9638671875,-3818.333984375,-6062.75146484375,-3420.8486328125,-4597.3505859375,-1230.3299560546875,-483.32427978515625,-4.199999809265137,-10.5,-4280.9853515625,-6965.25537109375,-10.800000190734863,-1913.4383544921875,-5381.57373046875,-4421.7177734375,0.0
2021-06-21 10:18:59.591360,-129.0,-2529.35400390625,-2960.815185546875,-1474.22998046875,-2094.338623046875,-1206.0155029296875,372.1750183105469,1182.90185546875,1560.1839599609375,9816.0,-9820.2001953125,-9798.0,-7996.25634765625,-7929.75634765625,-2045.6595458984375,-314.9112854003906,-3.9000000953674316,-10.800000190734863,-9807.0,-9815.400390625,-11.100000381469727,9810.2998046875,-6374.23046875,-5490.3916015625,0.0
2021-06-21 10:18:59.591360,-418.5,-2500.890380859375,-2977.009521484375,-2167.10302734375,-2314.417724609375,-1620.0877685546875,162.54542541503906,719.348388671875,1411.5950927734375,3500.771484375,-6156.50537109375,-6275.94677734375,-4466.09130859375,-7553.1748046875,-2325.6201171875,-489.9287109375,-3.5999999046325684,-10.5,-5030.69677734375,-4847.49169921875,-11.399999618530273,7104.96044921875,-5555.88671875,-4971.4755859375,0.0
2021-06-21 10:18:59.630466,-1234.199951171875,-2454.74951171875,-3050.482666015625,-3420.2734375,-2851.45849609375,-2658.5595703125,-756.3460083007812,-927.1068115234375,445.7668762207031,-9816.30078125,8954.998046875,8622.88671875,2301.63037109375,-3932.7236328125,-1506.3983154296875,-685.960205078125,-3.5999999046325684,-10.5,9454.142578125,7680.8623046875,-10.800000190734863,-5997.49560546875,-3969.131103515625,-3209.316162109375,0.0
2021-06-21 10:18:59.630466,-896.0999755859375,-2011.3187255859375,-2493.886474609375,-3032.444580078125,-2562.3056640625,-2445.8388671875,-673.27392578125,-921.70263671875,-74.29447174072266,-9173.7236328125,9819.900390625,9028.046875,3457.38720703125,-1609.5213623046875,-161.9879608154297,-64.24310302734375,-3.9000000953674316,-10.5,9806.7001953125,6363.17578125,-10.800000190734863,-9810.6005859375,-3236.29931640625,-2393.063720703125,0.0
2021-06-21 10:18:59.631505,-820.2000122070312,-2610.84912109375,-2973.11083984375,-2509.640380859375,-2727.364990234375,-2211.576904296875,-577.30615234375,-356.97216796875,594.3557739257812,5358.103515625,-3615.744384765625,-6086.37353515625,-3418.752197265625,-4556.0732421875,-1106.3687744140625,-505.2389831542969,-4.199999809265137,-10.199999809265137,-4100.216796875,-7033.55126953125,-10.800000190734863,-1849.0682373046875,-5364.23193359375,-4452.8583984375,0.0
2021-06-21 10:18:59.632504,-142.5,-2564.70849609375,-2906.8349609375,-1558.5146484375,-2209.16259765625,-1197.0399169921875,355.0807800292969,1047.798828125,1560.1839599609375,9816.0,-9820.2001953125,-9798.0,-8036.9873046875,-7915.99755859375,-1967.809326171875,-280.988525390625,-3.9000000953674316,-10.5,-9807.0,-9815.400390625,-10.800000190734863,9810.2998046875,-6367.65234375,-5523.0302734375,0.0
2021-06-21 10:18:59.632504,-387.8999938964844,-2559.3154296875,-2962.014892578125,-2192.598388671875,-2454.957275390625,-1631.456787109375,178.1401824951172,676.7159423828125,1263.006103515625,3357.876708984375,-6368.0859375,-6759.14892578125,-4497.23876953125,-7596.8447265625,-2285.197998046875,-417.88037109375,-3.299999952316284,-10.5,-5074.39208984375,-5209.93798828125,-10.800000190734863,7039.6923828125,-5646.7802734375,-4931.35205078125,0.0
2021-06-21 10:18:59.633501,-1116.0,-2465.236083984375,-3013.595947265625,-3432.271240234375,-2989.0078125,-2603.80859375,-709.861572265625,-944.52001953125,445.7668762207031,-9816.30078125,8815.9423828125,8331.3505859375,2220.466796875,-3909.39306640625,-1385.43115234375,-582.090576171875,-3.5999999046325684,-10.5,9406.5556640625,7397.4951171875,-11.100000381469727,-6181.025390625,-4008.299072265625,-3127.271728515625,0.0
2021-06-21 10:18:59.633501,-800.7000122070312,-1940.609375,-2526.874267578125,-3081.935546875,-2675.33544921875,-2465.88427734375,-636.0863647460938,-889.2778930664062,0.0,-9208.4736328125,9819.900390625,8628.56640625,3400.18310546875,-1578.712890625,-156.29891967773438,-62.141693115234375,-3.9000000953674316,-10.5,9806.7001953125,5696.994140625,-10.5,-9810.6005859375,-3289.819091796875,-2251.132568359375,0.0
2021-06-21 10:18:59.634467,-608.4000244140625,-2536.544677734375,-2920.0302734375,-2548.63330078125,-2722.281494140625,-2190.334716796875,-500.53192138671875,-340.1593017578125,594.3557739257812,5252.95458984375,-4556.46728515625,-7013.009765625,-3401.38134765625,-4523.76904296875,-1048.28076171875,-390.5620422363281,-3.9000000953674316,-10.199999809265137,-4445.5927734375,-7370.23681640625,-10.800000190734863,-1681.4066162109375,-5387.8525390625,-4299.25,0.0
2021-06-21 10:18:59.635501,208.5,-2284.86767578125,-2706.20849609375,-1367.449462890625,-1989.681640625,-978.3355712890625,619.8917846679688,1354.0322265625,1634.4783935546875,9816.0,-9820.2001953125,-9798.0,-7836.923828125,-7785.28564453125,-1761.5068359375,-46.531219482421875,-4.199999809265137,-10.5,-9807.0,-9815.400390625,-11.100000381469727,9810.2998046875,-6177.19384765625,-5189.76220703125,0.0
2021-06-21 10:18:59.635501,-136.1999969482422,-2227.64111328125,-2780.881103515625,-2012.931396484375,-2254.912841796875,-1448.0562744140625,453.1478271484375,899.4857177734375,1560.1839599609375,3186.822509765625,-7120.9033203125,-7635.251953125,-4338.80517578125,-7473.0126953125,-2061.2294921875,-211.94219970703125,-3.5999999046325684,-10.5,-5378.76611328125,-5414.8251953125,-10.5,7103.46337890625,-5519.1103515625,-4670.845703125,0.0
2021-06-21 10:18:59.636502,-1047.300048828125,-2358.87255859375,-2964.4140625,-3440.969970703125,-2870.296630859375,-2594.8330078125,-649.281982421875,-836.7378540039062,594.3557739257812,-9816.30078125,8469.5029296875,7829.0107421875,2247.121826171875,-3905.8037109375,-1394.71337890625,-596.8004150390625,-3.299999952316284,-10.800000190734863,9324.849609375,6936.798828125,-10.5,-6016.95654296875,-3946.1083984375,-3051.515380859375,0.0
2021-06-21 10:18:59.636502,-732.9000244140625,-1849.825927734375,-2442.605224609375,-3120.02880859375,-2604.467529296875,-2406.94482421875,-528.7224731445312,-828.3314819335938,0.0,-9175.8203125,9819.900390625,8435.1064453125,3343.27880859375,-1659.1739501953125,-153.00526428222656,-47.732025146484375,-4.5,-10.199999809265137,9806.7001953125,5420.216796875,-11.100000381469727,-9810.6005859375,-3196.234375,-2227.477294921875,0.0
2021-06-21 10:18:59.637508,-626.4000244140625,-2509.87890625,-2954.2177734375,-2537.53515625,-2713.9091796875,-2156.227783203125,-417.4598083496094,-213.46273803710938,594.3557739257812,5280.814453125,-5053.05126953125,-7445.67822265625,-3494.82421875,-4616.1943359375,-1137.8082275390625,-419.0811767578125,-3.5999999046325684,-10.5,-4698.4892578125,-7454.70751953125,-10.800000190734863,-1735.8966064453125,-5332.23974609375,-4293.26123046875,0.0
2021-06-21 10:18:59.638499,151.5,-2345.389892578125,-2838.460205078125,-1480.2288818359375,-2056.662109375,-1098.60791015625,625.5899047851562,1377.750244140625,1485.8895263671875,9816.0,-9820.2001953125,-9798.0,-7895.32568359375,-7943.81494140625,-1860.0169677734375,-49.2330322265625,-3.9000000953674316,-10.5,-9807.0,-9815.400390625,-10.800000190734863,9810.2998046875,-6154.17138671875,-5314.32568359375,0.0
2021-06-21 10:18:59.638499,-150.3000030517578,-2307.93798828125,-2903.236572265625,-2102.614990234375,-2296.4765625,-1447.15869140625,439.65234375,946.0211791992188,1485.8895263671875,3283.883056640625,-7210.2109375,-7724.35693359375,-4368.15576171875,-7639.61767578125,-2152.85302734375,-221.24844360351562,-3.5999999046325684,-10.5,-5511.9482421875,-5519.6650390625,-10.5,7056.1591796875,-5395.0283203125,-4774.44921875,0.0
2021-06-21 10:18:59.639498,-1125.9000244140625,-2454.150390625,-3150.94580078125,-3580.4443359375,-2951.63037109375,-2596.628173828125,-605.19677734375,-816.3223266601562,520.0613403320312,-9816.30078125,8443.4306640625,7721.36669921875,2210.283935546875,-4063.435791015625,-1416.2718505859375,-532.8575439453125,-3.9000000953674316,-10.5,9300.009765625,6832.55859375,-11.100000381469727,-6219.34765625,-3878.2373046875,-3094.333984375,0.0
2021-06-21 10:18:59.639498,-787.7999877929688,-2093.413330078125,-2675.02001953125,-3243.305908203125,-2657.394287109375,-2421.604736328125,-506.8298034667969,-906.991455078125,74.29447174072266,-9180.61328125,9819.900390625,8430.3232421875,3300.450927734375,-1754.5906982421875,-180.5522003173828,-66.94491577148438,-3.5999999046325684,-10.5,9806.7001953125,5277.3349609375,-10.5,-9810.6005859375,-3237.196533203125,-2304.132080078125,0.0
2021-06-21 10:18:59.726053,-691.5,-2677.064208984375,-3072.67431640625,-2596.92431640625,-2772.81591796875,-2120.923583984375,-447.4497375488281,-411.01336669921875,668.6503295898438,5347.02001953125,-5090.8125,-7475.87890625,-3510.697509765625,-4761.263671875,-1180.625732421875,-392.3632507324219,-3.9000000953674316,-10.800000190734863,-4856.51220703125,-7528.994140625,-10.5,-1668.5325927734375,-5345.0966796875,-4328.294921875,0.0
2021-06-21 10:18:59.727085,45.0,-2463.738037109375,-2938.92333984375,-1514.1226806640625,-2110.18701171875,-1056.1236572265625,608.19580078125,1195.211181640625,1560.1839599609375,9816.0,-9820.2001953125,-9798.0,-8021.71337890625,-8007.2265625,-1895.3489990234375,-119.48016357421875,-4.199999809265137,-10.5,-9807.0,-9815.400390625,-11.100000381469727,9810.2998046875,-6207.98974609375,-5306.24072265625,0.0
2021-06-21 10:18:59.728086,-218.10000610351562,-2406.81103515625,-2928.127197265625,-2248.08837890625,-2358.07470703125,-1456.7325439453125,430.9552917480469,754.1749267578125,1560.1839599609375,3321.928466796875,-7140.68310546875,-7636.4482421875,-4462.4970703125,-7707.21728515625,-2200.16162109375,-280.6883239746094,-3.9000000953674316,-10.199999809265137,-5588.86474609375,-5477.72900390625,-10.5,7024.12353515625,-5468.28173828125,-4807.38671875,0.0
2021-06-21 10:18:59.728086,-1066.199951171875,-2451.453857421875,-3064.877197265625,-3621.53662109375,-2967.17919921875,-2597.52587890625,-611.4946899414062,-940.0166015625,520.0613403320312,-9816.30078125,8501.869140625,7806.88427734375,2121.6328125,-4130.73583984375,-1439.327392578125,-582.9911499023438,-3.299999952316284,-10.5,9283.25,6841.84423828125,-10.800000190734863,-6077.4345703125,-3981.688720703125,-3141.64453125,0.0
2021-06-21 10:18:59.729053,-770.4000244140625,-2011.91796875,-2647.13037109375,-3317.6923828125,-2641.546142578125,-2435.66650390625,-509.82879638671875,-900.0862426757812,-74.29447174072266,-9151.5546875,9819.900390625,8521.8203125,3182.7490234375,-1819.7969970703125,-226.96279907226562,-134.490234375,-3.299999952316284,-10.800000190734863,9806.7001953125,5315.97607421875,-10.800000190734863,-9810.6005859375,-3266.19873046875,-2244.545166015625,0.0
2021-06-21 10:18:59.730094,-749.4000244140625,-2516.470458984375,-3104.462890625,-2633.817626953125,-2677.428466796875,-2126.010009765625,-477.1397705078125,-289.420654296875,668.6503295898438,5335.935546875,-4848.96337890625,-7243.845703125,-3609.23193359375,-4741.8212890625,-1234.2225341796875,-433.4908447265625,-3.5999999046325684,-10.199999809265137,-4868.48388671875,-7508.62548828125,-11.100000381469727,-1273.6295166015625,-5434.4951171875,-4288.1708984375,0.0
2021-06-21 10:18:59.730094,12.300000190734863,-2346.288818359375,-2938.323486328125,-1525.5206298828125,-1932.5687255859375,-1064.20166015625,560.2119140625,1233.940673828125,1560.1839599609375,9816.0,-9820.2001953125,-9798.0,-7997.4541015625,-8032.9501953125,-1940.5618896484375,-162.70916748046875,-3.9000000953674316,-10.199999809265137,-9807.0,-9815.400390625,-11.100000381469727,9810.2998046875,-6276.16015625,-5232.28125,0.0
2021-06-21 10:18:59.731087,-300.29998779296875,-2396.624267578125,-3046.283935546875,-2288.580810546875,-2335.648193359375,-1489.942138671875,303.4980773925781,766.484375,1485.8895263671875,3179.03369140625,-6829.6064453125,-7230.39013671875,-4572.11279296875,-7766.142578125,-2238.78759765625,-394.46466064453125,-3.5999999046325684,-10.5,-5622.68408203125,-5412.4287109375,-11.399999618530273,6964.5439453125,-5609.705078125,-4793.3134765625,0.0
2021-06-21 10:18:59.731087,-1167.5999755859375,-2500.291259765625,-3153.944580078125,-3594.541748046875,-2897.507568359375,-2577.779541015625,-663.377197265625,-972.4413452148438,445.7668762207031,-9816.30078125,8668.49609375,8154.93310546875,2039.2713623046875,-4160.94580078125,-1430.3447265625,-703.672119140625,-3.9000000953674316,-10.5,9296.119140625,7070.6943359375,-10.800000190734863,-6111.865234375,-4134.47412109375,-3096.43017578125,0.0
2021-06-21 10:18:59.732088,-846.5999755859375,-2065.549072265625,-2669.022216796875,-3257.103515625,-2545.859619140625,-2373.735107421875,-684.0702514648438,-1039.692626953125,-74.29447174072266,-9157.546875,9819.900390625,8721.259765625,3174.363037109375,-1812.3192138671875,-246.7247314453125,-136.59164428710938,-3.5999999046325684,-10.199999809265137,9806.7001953125,5543.32861328125,-11.399999618530273,-9810.6005859375,-3483.566650390625,-2282.572998046875,0.0
2021-06-21 10:18:59.733087,-724.2000122070312,-2656.09130859375,-3088.868408203125,-2668.9111328125,-2664.57080078125,-2114.640869140625,-595.8998413085938,-374.38543701171875,594.3557739257812,5329.9443359375,-4404.525390625,-6718.7822265625,-3683.806396484375,-4822.28271484375,-1212.364501953125,-568.5814819335938,-3.9000000953674316,-10.5,-4776.00390625,-7367.84033203125,-10.800000190734863,-1674.81982421875,-5606.71533203125,-4316.91650390625,0.0
2021-06-21 10:18:59.733087,-58.79999923706055,-2523.960693359375,-2963.814208984375,-1622.40283203125,-2153.84375,-1111.472900390625,381.4718933105469,1035.189208984375,1411.5950927734375,9816.0,-9820.2001953125,-9798.0,-8121.7451171875,-8095.763671875,-2025.5980224609375,-314.9112854003906,-3.5999999046325684,-10.199999809265137,-9807.0,-9815.400390625,-11.100000381469727,9810.2998046875,-6522.82958984375,-5385.89013671875,0.0
2021-06-21 10:18:59.734087,-411.0,-2487.707275390625,-3084.669921875,-2347.070068359375,-2426.550537109375,-1615.0015869140625,180.83926391601562,668.9099731445312,1485.8895263671875,3285.680419921875,-6339.01611328125,-6514.25830078125,-4557.73681640625,-7694.05615234375,-2286.994384765625,-482.12347412109375,-3.5999999046325684,-10.5,-5325.19384765625,-5100.90478515625,-10.800000190734863,7027.71630859375,-5774.4501953125,-4844.216796875,0.0
2021-06-21 10:18:59.734087,-1185.9000244140625,-2413.10302734375,-3115.258544921875,-3587.04296875,-2919.93408203125,-2677.10888671875,-708.0621948242188,-1012.3717651367188,520.0613403320312,-9816.30078125,8914.5400390625,8484.443359375,2225.558349609375,-3994.639892578125,-1509.9913330078125,-716.8809814453125,-3.299999952316284,-10.5,9392.4892578125,7632.3359375,-11.399999618530273,-6054.97998046875,-4149.423828125,-3058.102783203125,0.0
2021-06-21 10:18:59.735053,-913.7999877929688,-2061.3544921875,-2576.05615234375,-3248.10498046875,-2635.2666015625,-2473.064697265625,-663.0773315429688,-1018.9768676757812,-74.29447174072266,-9095.53515625,9819.900390625,9136.5869140625,3307.9384765625,-1727.3714599609375,-332.9586181640625,-198.43313598632812,-3.9000000953674316,-10.5,9806.7001953125,6218.4970703125,-10.800000190734863,-9810.6005859375,-3477.8857421875,-2252.330322265625,0.0
2021-06-21 10:18:59.735053,-755.4000244140625,-2602.759765625,-2937.423828125,-2624.519287109375,-2714.80615234375,-2118.23095703125,-575.2068481445312,-428.1263732910156,594.3557739257812,5433.59521484375,-3608.252197265625,-5713.20751953125,-3530.763671875,-4719.6875,-1208.771484375,-616.6137084960938,-3.9000000953674316,-10.5,-4353.412109375,-6856.52197265625,-10.800000190734863,-1515.8406982421875,-5590.5693359375,-4325.00146484375,0.0
2021-06-21 10:18:59.736053,-178.1999969482422,-2573.697021484375,-2901.13720703125,-1654.4970703125,-2089.853515625,-1192.5521240234375,354.48095703125,991.9562377929688,1485.8895263671875,9816.0,-9820.2001953125,-9798.0,-8022.9111328125,-8048.80322265625,-2130.0966796875,-342.2296142578125,-3.5999999046325684,-10.199999809265137,-9807.0,-9815.400390625,-10.5,9810.2998046875,-6448.978515625,-5373.31396484375,0.0
2021-06-21 10:18:59.737053,-486.6000061035156,-2568.603515625,-2926.927734375,-2346.17041015625,-2394.25634765625,-1580.8944091796875,158.34681701660156,550.319580078125,1411.5950927734375,3022.05908203125,-5686.59326171875,-5625.59765625,-4466.390625,-7669.52880859375,-2412.153564453125,-509.1416015625,-3.5999999046325684,-10.5,-4872.97314453125,-4636.6142578125,-11.399999618530273,6853.767578125,-5679.66943359375,-4778.04248046875,0.0
2021-06-21 10:18:59.737053,-1234.5,-2425.986572265625,-2955.117431640625,-3512.65673828125,-2802.718017578125,-2539.782958984375,-710.7613525390625,-948.7232666015625,445.7668762207031,-9816.30078125,9175.26953125,8949.107421875,2362.7275390625,-3921.65673828125,-1490.52880859375,-660.1429443359375,-3.5999999046325684,-10.5,9519.3857421875,8081.94873046875,-11.100000381469727,-6188.51025390625,-3937.138671875,-2930.843994140625,0.0
2021-06-21 10:18:59.738090,-915.2999877929688,-1982.256103515625,-2376.329345703125,-3157.521728515625,-2486.3544921875,-2332.7470703125,-602.797607421875,-1045.697265625,0.0,-9187.802734375,9819.900390625,9166.787109375,3416.955078125,-1582.3021240234375,-228.4599151611328,-159.40695190429688,-4.199999809265137,-10.5,9806.7001953125,6442.2548828125,-10.800000190734863,-9810.6005859375,-3308.0576171875,-2125.071533203125,0.0
2021-06-21 10:18:59.738090,-807.5999755859375,-2595.56884765625,-2775.783203125,-2549.8330078125,-2575.46240234375,-2072.455810546875,-485.237060546875,-434.7314147949219,520.0613403320312,5131.62890625,-3419.748046875,-5529.31591796875,-3510.697509765625,-4596.453125,-1125.5318603515625,-534.65869140625,-3.5999999046325684,-10.5,-4093.03369140625,-6837.65087890625,-10.800000190734863,-1791.5841064453125,-5470.37451171875,-4243.85498046875,0.0
2021-06-21 10:18:59.739087,-184.8000030517578,-2511.97607421875,-2779.08203125,-1621.203125,-1991.475830078125,-1089.931640625,433.3544921875,1076.320556640625,1560.1839599609375,9816.0,-9820.2001953125,-9798.0,-7963.91015625,-7973.12744140625,-2006.734375,-360.24169921875,-3.9000000953674316,-10.199999809265137,-9807.0,-9815.400390625,-11.100000381469727,9810.2998046875,-6318.91650390625,-5249.6484375,0.0
2021-06-21 10:18:59.740085,-402.0,-2422.69091796875,-2792.5771484375,-2299.078857421875,-2198.69677734375,-1475.581298828125,340.9855041503906,748.1703491210938,1560.1839599609375,2924.99853515625,-5971.8974609375,-5956.0048828125,-4322.033203125,-7523.5625,-2208.545654296875,-490.8293151855469,-3.9000000953674316,-10.199999809265137,-4816.40771484375,-4632.12109375,-11.100000381469727,6874.7255859375,-5500.87158203125,-4591.1962890625,0.0
2021-06-21 10:18:59.740085,-1085.0999755859375,-2402.017333984375,-2874.746826171875,-3500.658935546875,-2701.35009765625,-2491.614013671875,-580.9049072265625,-885.375,520.0613403320312,-9816.30078125,9016.134765625,8793.62109375,2438.20068359375,-3790.3466796875,-1359.680908203125,-611.2100830078125,-3.5999999046325684,-10.5,9531.05859375,7934.57470703125,-11.100000381469727,-6429.82275390625,-3807.973876953125,-2796.099365234375,0.0
2021-06-21 10:18:59.741086,-897.5999755859375,-2008.6220703125,-2511.8798828125,-3253.504150390625,-2477.98193359375,-2327.66064453125,-585.703369140625,-1003.9653930664062,-74.29447174072266,-9185.1064453125,9819.900390625,8805.880859375,3428.03662109375,-1609.8204345703125,-158.69430541992188,-141.09466552734375,-3.9000000953674316,-10.199999809265137,9806.7001953125,6199.92529296875,-10.5,-9810.6005859375,-3232.41259765625,-2080.4560546875,0.0
2021-06-21 10:18:59.741086,-709.7999877929688,-2588.078369140625,-2910.1337890625,-2665.31201171875,-2496.8203125,-2063.18115234375,-360.47894287109375,-353.66961669921875,520.0613403320312,5331.44189453125,-4266.9677734375,-6394.05615234375,-3393.89404296875,-4516.88916015625,-1100.080810546875,-498.93475341796875,-3.9000000953674316,-10.5,-4272.60498046875,-7073.9892578125,-11.399999618530273,-2039.7833251953125,-5390.54345703125,-4143.24560546875,0.0
2021-06-21 10:18:59.742094,-13.5,-2379.546142578125,-2808.47119140625,-1549.5162353515625,-1896.9852294921875,-1001.6719970703125,643.2839965820312,1268.467041015625,1560.1839599609375,9816.0,-9820.2001953125,-9798.0,-7820.45166015625,-7784.986328125,-1805.2225341796875,-170.514404296875,-3.5999999046325684,-10.5,-9807.0,-9815.400390625,-10.800000190734863,9810.2998046875,-6074.041015625,-5062.80224609375,0.0
2021-06-21 10:18:59.743087,-244.8000030517578,-2346.288818359375,-2886.142578125,-2291.2802734375,-2239.66259765625,-1454.0400390625,408.1629333496094,838.239013671875,1485.8895263671875,3181.729736328125,-6571.27490234375,-6818.05419921875,-4248.95654296875,-7394.34619140625,-2082.488525390625,-349.7346496582031,-3.299999952316284,-10.5,-4916.66845703125,-4927.17041015625,-11.100000381469727,6916.34130859375,-5323.86767578125,-4562.451171875,0.0
2021-06-21 10:18:59.743087,-1019.4000244140625,-2354.078857421875,-2976.40966796875,-3554.049072265625,-2801.821044921875,-2556.238037109375,-571.3081665039062,-827.1305541992188,445.7668762207031,-9816.30078125,8817.7412109375,8416.568359375,2456.769287109375,-3774.493408203125,-1256.3798828125,-529.85546875,-3.299999952316284,-10.199999809265137,9514.298828125,7600.28515625,-11.100000381469727,-6304.67578125,-3741.597412109375,-2830.83349609375,0.0
2021-06-21 10:18:59.744085,-747.2999877929688,-1898.6632080078125,-2578.755126953125,-3202.213623046875,-2525.22705078125,-2391.686279296875,-561.71142578125,-870.363525390625,-222.88343811035156,-9068.8740234375,9819.900390625,8500.2919921875,3433.1279296875,-1557.7750244140625,-101.50447082519531,-50.433837890625,-3.5999999046325684,-10.800000190734863,9806.7001953125,5783.861328125,-10.800000190734863,-9810.6005859375,-3106.536376953125,-2065.783935546875,0.0
2021-06-21 10:18:59.744085,-547.7999877929688,-2511.077392578125,-3043.884765625,-2605.322998046875,-2606.26171875,-2145.45703125,-497.83282470703125,-336.8568115234375,594.3557739257812,5501.89697265625,-4620.6005859375,-7032.14599609375,-3450.19921875,-4528.5546875,-1078.8218994140625,-412.1765441894531,-3.9000000953674316,-10.800000190734863,-4465.04638671875,-7283.96875,-10.5,-1791.5841064453125,-5270.048828125,-4099.22900390625,0.0
2021-06-21 10:18:59.745053,223.8000030517578,-2312.43212890625,-2776.3828125,-1531.51953125,-1873.960693359375,-940.9373779296875,633.3872680664062,1329.713623046875,1560.1839599609375,9816.0,-9820.2001953125,-9798.0,-7811.76611328125,-7751.78466796875,-1696.831298828125,50.433837890625,-3.9000000953674316,-10.199999809265137,-9807.0,-9815.400390625,-10.800000190734863,9810.2998046875,-5961.6201171875,-4987.34521484375,0.0
2021-06-21 10:18:59.746086,-51.0,-2280.37353515625,-2887.342041015625,-2200.09716796875,-2150.853515625,-1444.1668701171875,474.1407775878906,913.2962036132812,1634.4783935546875,3156.566162109375,-6900.3330078125,-7534.18603515625,-4240.27099609375,-7382.97998046875,-1997.15283203125,-175.01742553710938,-3.5999999046325684,-11.100000381469727,-5195.60302734375,-5275.5380859375,-10.5,6812.451171875,-5221.0146484375,-4516.9375,0.0
2021-06-21 10:18:59.746086,-928.5,-2339.09814453125,-3068.47607421875,-3524.3544921875,-2795.54150390625,-2603.509521484375,-594.7003173828125,-761.6806640625,594.3557739257812,-9816.30078125,8662.5029296875,8005.12890625,2383.6923828125,-3784.663330078125,-1300.993896484375,-448.8011169433594,-3.5999999046325684,-10.5,9426.30859375,6784.03271484375,-10.800000190734863,-6401.38037109375,-3678.509765625,-2849.997314453125,0.0
2021-06-21 10:18:59.747086,-704.0999755859375,-1937.9129638671875,-2592.55029296875,-3195.314697265625,-2501.305419921875,-2497.298828125,-501.73150634765625,-832.8349609375,-148.5889434814453,-9045.2080078125,9819.900390625,8026.95654296875,3318.121337890625,-1603.239990234375,-99.10908508300781,12.60845947265625,-3.5999999046325684,-10.5,9742.353515625,4890.92578125,-10.800000190734863,-9810.6005859375,-3214.173828125,-2130.7607421875,0.0
2021-06-21 10:18:59.802320,-555.9000244140625,-2535.9453125,-3040.5859375,-2570.529296875,-2625.099853515625,-2192.428955078125,-409.0626525878906,-227.573486328125,742.9447631835938,5534.849609375,-5492.09521484375,-7917.21923828125,-3537.65234375,-4587.77880859375,-1057.8623046875,-331.1221618652344,-3.9000000953674316,-10.5,-5014.53515625,-7884.55078125,-11.100000381469727,-1738.591064453125,-5356.4580078125,-4174.9853515625,0.0
2021-06-21 10:18:59.803349,312.8999938964844,-2272.58349609375,-2905.33544921875,-1475.729736328125,-1879.0440673828125,-1078.86181640625,672.6741333007812,1403.269775390625,1560.1839599609375,9816.0,-9820.2001953125,-9798.0,-7855.7919921875,-7800.83935546875,-1747.7332763671875,69.646728515625,-3.5999999046325684,-10.5,-9807.0,-9815.400390625,-10.800000190734863,9810.2998046875,-6078.22705078125,-5175.38916015625,0.0
2021-06-21 10:18:59.804355,55.5,-2205.769287109375,-2901.43701171875,-2133.20947265625,-2190.32421875,-1381.3380126953125,470.8418884277344,1005.1663208007812,1337.3006591796875,3262.61376953125,-7532.07666015625,-8309.5224609375,-4188.75732421875,-7326.1484375,-2003.7401123046875,-39.926788330078125,-3.5999999046325684,-10.199999809265137,-5647.82373046875,-5680.818359375,-10.5,6970.5322265625,-5280.21484375,-4564.8466796875,0.0
2021-06-21 10:18:59.804355,-964.2000122070312,-2384.939208984375,-3147.346923828125,-3604.73974609375,-2944.453857421875,-2598.1240234375,-607.2960815429688,-760.4797973632812,594.3557739257812,-9816.30078125,8333.4443359375,7350.2939453125,2280.06640625,-3822.650634765625,-1329.738525390625,-404.3713073730469,-3.5999999046325684,-10.800000190734863,9312.5791015625,6389.23583984375,-10.800000190734863,-6361.56103515625,-3831.59423828125,-3036.543701171875,0.0
2021-06-21 10:18:59.805350,-581.7000122070312,-1883.6824951171875,-2607.544677734375,-3302.395263671875,-2564.39892578125,-2430.879638671875,-393.16796875,-644.8916625976562,0.0,-8992.4833984375,9819.900390625,7709.70556640625,3318.72021484375,-1550.59619140625,-28.145782470703125,164.21017456054688,-4.199999809265137,-10.199999809265137,9664.5390625,4318.20068359375,-11.100000381469727,-9810.6005859375,-3161.85009765625,-2253.82763671875,0.0
2021-06-21 10:18:59.806353,-510.29998779296875,-2476.921142578125,-3039.086669921875,-2702.80517578125,-2709.124755859375,-2101.77587890625,-228.82315063476562,-109.58354187011719,742.9447631835938,5701.41064453125,-5960.80859375,-8372.61328125,-3526.870361328125,-4566.5419921875,-980.6110229492188,-285.4915466308594,-3.9000000953674316,-10.800000190734863,-5238.1015625,-8160.42919921875,-10.800000190734863,-1631.1080322265625,-5391.14111328125,-4366.32275390625,0.0
2021-06-21 10:18:59.806353,300.29998779296875,-2294.15576171875,-2816.867919921875,-1578.3109130859375,-2025.5640869140625,-1006.458984375,786.3359375,1522.460693359375,1634.4783935546875,9816.0,-9820.2001953125,-9798.0,-7848.60400390625,-7765.84326171875,-1716.2938232421875,100.86767578125,-4.199999809265137,-10.5,-9807.0,-9815.400390625,-11.100000381469727,9810.2998046875,-6180.78173828125,-5309.53515625,0.0
2021-06-21 10:18:59.807352,-28.799999237060547,-2264.1943359375,-2874.14697265625,-2335.072265625,-2339.535400390625,-1482.163330078125,605.19677734375,1031.2862548828125,1634.4783935546875,3326.421875,-7462.548828125,-8095.72900390625,-4190.2548828125,-7402.123046875,-2058.235107421875,-121.58157348632812,-3.299999952316284,-9.899999618530273,-5752.27490234375,-6027.08935546875,-10.5,6874.12646484375,-5378.583984375,-4757.38134765625,0.0
2021-06-21 10:18:59.808349,-941.7000122070312,-2389.433349609375,-2991.104248046875,-3701.322265625,-2971.36572265625,-2700.146240234375,-536.5198364257812,-781.7960205078125,817.2391967773438,-9816.30078125,8405.369140625,7549.73486328125,2371.71240234375,-3762.828125,-1358.7825927734375,-452.4035339355469,-3.5999999046325684,-10.5,9266.4892578125,6421.287109375,-10.800000190734863,-6426.23046875,-3925.47802734375,-3264.1123046875,0.0
2021-06-21 10:18:59.808349,-690.5999755859375,-1910.947509765625,-2626.437744140625,-3308.093994140625,-2733.943359375,-2548.160400390625,-494.2340393066406,-894.3818359375,148.5889434814453,-8929.57421875,9819.900390625,8122.93896484375,3348.969482421875,-1619.3919677734375,-163.48507690429688,49.2330322265625,-3.0,-10.199999809265137,9706.140625,4511.10595703125,-11.100000381469727,-9810.6005859375,-3323.00732421875,-2464.029052734375,0.0
2021-06-21 10:18:59.809349,-613.2000122070312,-2509.87890625,-3087.96875,-2650.314697265625,-2839.49755859375,-2296.246337890625,-386.8700866699219,-263.00048828125,742.9447631835938,5897.02978515625,-5030.87451171875,-7787.1494140625,-3534.95654296875,-4599.14501953125,-1149.4857177734375,-355.4384765625,-3.5999999046325684,-10.5,-5091.75048828125,-8000.77294921875,-10.800000190734863,-1772.7222900390625,-5468.87939453125,-4640.3037109375,0.0
2021-06-21 10:18:59.810356,221.6999969482422,-2301.346435546875,-2884.943115234375,-1516.5223388671875,-2057.8583984375,-1147.6744384765625,656.1796875,1267.5662841796875,1708.77294921875,9816.0,-9820.2001953125,-9798.0,-7900.11767578125,-7833.1435546875,-1875.5870361328125,27.318328857421875,-3.9000000953674316,-10.800000190734863,-9807.0,-9815.400390625,-10.800000190734863,9810.2998046875,-6257.921875,-5535.6064453125,0.0
2021-06-21 10:18:59.810356,-192.0,-2320.52197265625,-2966.81298828125,-2323.074462890625,-2469.310302734375,-1670.6500244140625,299.8992919921875,764.6829223632812,1411.5950927734375,3603.823486328125,-6306.94921875,-6787.853515625,-4349.88671875,-7521.169921875,-2267.232666015625,-283.6903381347656,-3.9000000953674316,-10.199999809265137,-5275.8115234375,-5520.26416015625,-10.800000190734863,6949.2744140625,-5605.51904296875,-5043.63916015625,0.0
2021-06-21 10:18:59.811350,-1104.0,-2422.39111328125,-3069.675537109375,-3620.3369140625,-2985.718505859375,-2777.934326171875,-776.4392700195312,-1056.50537109375,668.6503295898438,-9816.30078125,9015.5361328125,8462.31640625,2310.315673828125,-3884.267578125,-1484.8397216796875,-629.22216796875,-3.5999999046325684,-10.5,9446.958984375,7118.92041015625,-11.100000381469727,-6239.4072265625,-4073.180419921875,-3420.11669921875,0.0
2021-06-21 10:18:59.812349,-874.7999877929688,-2009.52099609375,-2570.3583984375,-3307.494384765625,-2678.32568359375,-2624.1533203125,-723.0571899414062,-1087.729248046875,0.0,-8930.771484375,9819.900390625,8938.04296875,3357.954345703125,-1643.9193115234375,-341.34246826171875,-90.36062622070312,-3.5999999046325684,-10.199999809265137,9806.7001953125,5507.68310546875,-11.399999618530273,-9810.6005859375,-3514.063720703125,-2579.310302734375,0.0
2021-06-21 10:18:59.812349,-819.5999755859375,-2659.986083984375,-3048.68310546875,-2769.99267578125,-2755.173828125,-2387.497802734375,-653.1806640625,-507.08660888671875,594.3557739257812,5739.4560546875,-3604.65576171875,-6114.77978515625,-3531.063232421875,-4704.73193359375,-1305.78466796875,-665.246337890625,-3.299999952316284,-10.5,-4512.33349609375,-7313.0244140625,-10.800000190734863,-1514.64306640625,-5736.47802734375,-4678.03173828125,0.0
2021-06-21 10:18:59.813349,-173.39999389648438,-2666.278076171875,-2946.12060546875,-1768.4761962890625,-2137.995849609375,-1344.83740234375,261.81207275390625,873.666015625,1411.5950927734375,9816.0,-9820.2001953125,-9798.0,-7928.86962890625,-8062.861328125,-2229.50537109375,-451.8031311035156,-4.199999809265137,-10.199999809265137,-9807.0,-9815.400390625,-11.100000381469727,9810.2998046875,-6614.91943359375,-5678.73486328125,0.0
2021-06-21 10:18:59.863880,-453.6000061035156,-2547.330810546875,-2991.7041015625,-2474.846923828125,-2391.56494140625,-1736.171630859375,70.77623748779297,471.9598083496094,1411.5950927734375,3067.59375,-5422.8671875,-5717.0947265625,-4302.56591796875,-7657.564453125,-2386.70263671875,-634.926025390625,-3.5999999046325684,-10.5,-4775.4052734375,-4889.7275390625,-10.5,6835.8037109375,-5858.76611328125,-5124.48583984375,0.0
2021-06-21 10:18:59.864905,-1297.800048828125,-2506.8828125,-3076.872802734375,-3754.41259765625,-2913.95361328125,-2701.043701171875,-868.5083618164062,-1101.2396240234375,297.1778869628906,-9816.30078125,9279.861328125,8976.3173828125,2336.970703125,-3927.638916015625,-1569.8759765625,-785.6270751953125,-3.299999952316284,-10.800000190734863,9582.8349609375,7609.271484375,-11.100000381469727,-6337.90869140625,-4216.3984375,-3394.664794921875,0.0
2021-06-21 10:18:59.865905,-983.0999755859375,-2051.46728515625,-2585.35302734375,-3281.09912109375,-2664.57080078125,-2542.77490234375,-798.031982421875,-1059.5076904296875,-297.1778869628906,-9024.23828125,9819.900390625,8980.802734375,3289.669189453125,-1698.0584716796875,-355.1159362792969,-192.72930908203125,-3.9000000953674316,-10.5,9806.7001953125,5780.2666015625,-11.100000381469727,-9810.6005859375,-3537.684326171875,-2582.3046875,0.0
2021-06-21 10:18:59.866909,-866.7000122070312,-2707.625244140625,-3060.978759765625,-2710.9033203125,-2778.79638671875,-2318.385986328125,-661.2779541015625,-410.7131042480469,520.0613403320312,5597.16064453125,-3589.371826171875,-5767.6279296875,-3613.125244140625,-4723.87451171875,-1269.554443359375,-571.58349609375,-3.9000000953674316,-10.5,-4324.97998046875,-7227.35498046875,-10.5,-1575.7198486328125,-5763.9853515625,-4690.9072265625,0.0
2021-06-21 10:18:59.866909,-163.1999969482422,-2556.019775390625,-2942.82177734375,-1733.9825439453125,-2150.853515625,-1343.042236328125,361.0787658691406,1056.8056640625,1337.3006591796875,9816.0,-9820.2001953125,-9798.0,-7993.85986328125,-8073.92822265625,-2090.572998046875,-414.2779541015625,-3.9000000953674316,-10.199999809265137,-9807.0,-9815.400390625,-10.800000190734863,9810.2998046875,-6581.1328125,-5665.2607421875,0.0
2021-06-21 10:18:59.867904,-473.1000061035156,-2457.74560546875,-2982.107421875,-2382.163818359375,-2431.6337890625,-1715.2286376953125,174.84127807617188,631.38134765625,1411.5950927734375,3018.164794921875,-5691.0888671875,-5884.2421875,-4340.60205078125,-7659.658203125,-2305.558837890625,-600.40283203125,-3.5999999046325684,-10.5,-4716.14697265625,-4591.38330078125,-10.800000190734863,6803.46923828125,-5737.37548828125,-5063.4013671875,0.0
2021-06-21 10:18:59.868904,-1217.699951171875,-2418.795654296875,-3021.693115234375,-3616.737548828125,-2926.213623046875,-2715.7041015625,-753.047119140625,-938.815673828125,371.4723815917969,-9816.30078125,9201.3427734375,8843.8544921875,2428.317138671875,-3888.455078125,-1424.955078125,-715.68017578125,-3.9000000953674316,-10.5,9624.7353515625,7944.45947265625,-10.800000190734863,-6259.16748046875,-4087.233154296875,-3198.53662109375,0.0
2021-06-21 10:18:59.869905,-874.7999877929688,-1951.994873046875,-2501.68359375,-3164.42041015625,-2559.91357421875,-2504.7783203125,-643.2839965820312,-936.1137084960938,-222.88343811035156,-9041.013671875,9819.900390625,8785.5478515625,3451.397216796875,-1652.892578125,-179.95335388183594,-141.09466552734375,-3.299999952316284,-10.5,9806.7001953125,6144.509765625,-10.800000190734863,-9810.6005859375,-3421.973876953125,-2358.329345703125,0.0
2021-06-21 10:18:59.869905,-797.0999755859375,-2664.48046875,-3041.78564453125,-2632.617919921875,-2786.27197265625,-2323.1728515625,-544.3171997070312,-400.205078125,297.1778869628906,5454.86474609375,-3908.83984375,-6315.1171875,-3581.67822265625,-4647.60107421875,-1268.95556640625,-598.001220703125,-3.5999999046325684,-10.5,-4195.98828125,-7170.44189453125,-10.5,-1722.1243896484375,-5646.4814453125,-4556.76171875,0.0
2021-06-21 10:18:59.870906,-45.29999923706055,-2473.925048828125,-2852.55517578125,-1547.11669921875,-2099.72119140625,-1208.1097412109375,430.05560302734375,1148.67578125,1411.5950927734375,9816.0,-9820.2001953125,-9798.0,-7924.9755859375,-7910.31396484375,-2001.04541015625,-271.98248291015625,-3.5999999046325684,-10.5,-9807.0,-9815.400390625,-11.100000381469727,9810.2998046875,-6396.35546875,-5454.16064453125,0.0
2021-06-21 10:18:59.871905,-402.6000061035156,-2422.69091796875,-2862.451416015625,-2251.3876953125,-2396.349365234375,-1682.9166259765625,248.0167236328125,636.1849975585938,1263.006103515625,2764.42919921875,-5925.7451171875,-6321.09765625,-4223.19921875,-7441.0078125,-2348.376220703125,-442.1966857910156,-3.5999999046325684,-10.5,-4554.83203125,-4577.3046875,-11.100000381469727,6803.7685546875,-5560.072265625,-4855.2958984375,0.0
